# File: 20-11-28T182635.hot
# NOTEA     = RSP1A+GPIOLabs Pi #1 On Horn
# NOTEB     = Sdrplay 8 MHz Test
# OBSERVER  = Science Aficionado
# DEVICE    = SDRPlay RSP1A
# DATADIR   = ../data/
# SITE      = RSP1A+GPIOLabs Pi #1 On Horn
# CITY      = Green Bank
# REGION    = West Virginia
# COUNTRY   = US
# TELTYPE   = Bubble Wrap  Horn
# FRAME     = TOPO
# GAIN1     = 0.0
# GAIN2     = 12.0
# GAIN3     = 12.0
# GAIN4     = 0.0
# Count     = 360000
# CenterFreq= 1422000000.0
# Bandwidth = 8000000.0
# Duration  = 157.295293
# DeltaX    = 5859.375
# TSYS      = 200.0
# TRX       = 100.0
# TRMS      = 2.0
# TINT      = 1.0
# KPERC     = 100.0
# GAINFACT  = 1.0
# BUNIT     = Counts
# NCHAN     = 2048
# NSPEC     = 1
# NTIME     = 0
# NSAMPLES  = 0
# EPEAK     = 4.10875183718
# ERMS      = 0.995973393526
# EMJD      = 58568.808999981004 
# REFCHAN   = 1024.0
# REFSAMPL  = 256.0
# NAVE      = 600
# NMEDIAN   = 1024
# Fft_rate  = 5000
# UTC       = 2020-11-28 18:26:35.562409
# SECONDS   =       0.0000000000 
# LST       = 17:39:40.330
# AZ        = 180.0
# EL        = -40.0
# TELLON    = -79:50:22.920
# TELLAT    = +38:25:59.160
# RA        = 06:10:36.950
# DEC       = -88:26:24.800
# GALLON    = 301:12:10.40
# GALLAT    = -27:23:38.50
# ALT_SUN   = +27:19:01.8
# AZ_SUN    = +200:43:59.1
# ETAA      = 0.8
# ETAB      = 0.99
# POLANGLE  = 0.0
# TELSIZEAM = 1.0
# TELSIZEBM = 1.0
# AST_VERS  = 05.01
0000 1418001953 0.8446
0001 1418005859 0.8437
0002 1418009765 0.8454
0003 1418013671 0.8466
0004 1418017578 0.8507
0005 1418021484 0.8500
0006 1418025390 0.8508
0007 1418029296 0.8545
0008 1418033203 0.8589
0009 1418037109 0.8563
0010 1418041015 0.8614
0011 1418044921 0.8638
0012 1418048828 0.8644
0013 1418052734 0.8673
0014 1418056640 0.8693
0015 1418060546 0.8702
0016 1418064453 0.8698
0017 1418068359 0.8713
0018 1418072265 0.8692
0019 1418076171 0.8683
0020 1418080078 0.8673
0021 1418083984 0.8659
0022 1418087890 0.8633
0023 1418091796 0.8574
0024 1418095703 0.8482
0025 1418099609 0.8382
0026 1418103515 0.8311
0027 1418107421 0.8154
0028 1418111328 0.8028
0029 1418115234 0.7893
0030 1418119140 0.7742
0031 1418123046 0.7502
0032 1418126953 0.7277
0033 1418130859 0.7012
0034 1418134765 0.6755
0035 1418138671 0.6478
0036 1418142578 0.6143
0037 1418146484 0.5799
0038 1418150390 0.5422
0039 1418154296 0.5078
0040 1418158203 0.4667
0041 1418162109 0.4227
0042 1418166015 0.3824
0043 1418169921 0.3381
0044 1418173828 0.2969
0045 1418177734 0.2538
0046 1418181640 0.2112
0047 1418185546 0.1713
0048 1418189453 0.1336
0049 1418193359 0.1006
0050 1418197265 0.0721
0051 1418201171 0.0506
0052 1418205078 0.0369
0053 1418208984 0.0330
0054 1418212890 0.0405
0055 1418216796 0.0616
0056 1418220703 0.0987
0057 1418224609 0.1546
0058 1418228515 0.2309
0059 1418232421 0.3312
0060 1418236328 0.4602
0061 1418240234 0.6197
0062 1418244140 0.8125
0063 1418248046 1.0415
0064 1418251953 1.3149
0065 1418255859 1.6383
0066 1418259765 2.0191
0067 1418263671 2.4464
0068 1418267578 2.9339
0069 1418271484 3.4994
0070 1418275390 4.1388
0071 1418279296 4.8605
0072 1418283203 5.6475
0073 1418287109 6.5589
0074 1418291015 7.5553
0075 1418294921 8.6642
0076 1418298828 9.8903
0077 1418302734 11.2412
0078 1418306640 12.6940
0079 1418310546 14.3325
0080 1418314453 16.1122
0081 1418318359 17.9776
0082 1418322265 20.2285
0083 1418326171 22.3875
0084 1418330078 24.8214
0085 1418333984 27.4911
0086 1418337890 30.3764
0087 1418341796 33.4644
0088 1418345703 36.7614
0089 1418349609 40.2566
0090 1418353515 44.0481
0091 1418357421 47.9994
0092 1418361328 52.2801
0093 1418365234 56.8251
0094 1418369140 61.7177
0095 1418373046 67.0090
0096 1418376953 72.3216
0097 1418380859 78.3068
0098 1418384765 84.0271
0099 1418388671 90.2998
0100 1418392578 97.0755
0101 1418396484 103.8396
0102 1418400390 111.1239
0103 1418404296 118.8678
0104 1418408203 126.9535
0105 1418412109 135.0736
0106 1418416015 144.0070
0107 1418419921 152.8747
0108 1418423828 161.5944
0109 1418427734 172.2165
0110 1418431640 182.0888
0111 1418435546 193.2684
0112 1418439453 203.4787
0113 1418443359 215.0392
0114 1418447265 225.7538
0115 1418451171 237.8793
0116 1418455078 250.4192
0117 1418458984 264.0511
0118 1418462890 275.7342
0119 1418466796 288.3740
0120 1418470703 301.2790
0121 1418474609 315.9628
0122 1418478515 328.6422
0123 1418482421 343.5537
0124 1418486328 358.6062
0125 1418490234 373.8960
0126 1418494140 388.4699
0127 1418498046 403.4917
0128 1418501953 419.2394
0129 1418505859 436.6539
0130 1418509765 451.2869
0131 1418513671 466.3405
0132 1418517578 484.3407
0133 1418521484 501.4010
0134 1418525390 515.5889
0135 1418529296 532.3464
0136 1418533203 549.4548
0137 1418537109 565.4911
0138 1418541015 583.0869
0139 1418544921 598.9150
0140 1418548828 616.2911
0141 1418552734 636.1693
0142 1418556640 649.9352
0143 1418560546 667.8131
0144 1418564453 684.9863
0145 1418568359 700.9136
0146 1418572265 713.4507
0147 1418576171 729.3741
0148 1418580078 748.8790
0149 1418583984 763.8684
0150 1418587890 777.0945
0151 1418591796 797.0966
0152 1418595703 807.4922
0153 1418599609 824.7435
0154 1418603515 838.4348
0155 1418607421 849.8566
0156 1418611328 869.2966
0157 1418615234 883.9008
0158 1418619140 895.1689
0159 1418623046 911.3911
0160 1418626953 923.6498
0161 1418630859 936.9153
0162 1418634765 944.8670
0163 1418638671 958.9517
0164 1418642578 970.3607
0165 1418646484 983.6570
0166 1418650390 994.1121
0167 1418654296 1002.5926
0168 1418658203 1011.4122
0169 1418662109 1023.0698
0170 1418666015 1036.6263
0171 1418669921 1046.2869
0172 1418673828 1048.0924
0173 1418677734 1054.4363
0174 1418681640 1060.5927
0175 1418685546 1071.3853
0176 1418689453 1081.9473
0177 1418693359 1084.7815
0178 1418697265 1091.3563
0179 1418701171 1097.8844
0180 1418705078 1104.2423
0181 1418708984 1106.1034
0182 1418712890 1113.0767
0183 1418716796 1110.4504
0184 1418720703 1117.7913
0185 1418724609 1123.6692
0186 1418728515 1124.7579
0187 1418732421 1122.4005
0188 1418736328 1127.9551
0189 1418740234 1132.7800
0190 1418744140 1131.7520
0191 1418748046 1134.3669
0192 1418751953 1132.1580
0193 1418755859 1141.0824
0194 1418759765 1143.7380
0195 1418763671 1140.8043
0196 1418767578 1140.2643
0197 1418771484 1136.3461
0198 1418775390 1132.7804
0199 1418779296 1132.6256
0200 1418783203 1131.2107
0201 1418787109 1131.4904
0202 1418791015 1131.1870
0203 1418794921 1127.1530
0204 1418798828 1124.0018
0205 1418802734 1127.8881
0206 1418806640 1123.5082
0207 1418810546 1118.3160
0208 1418814453 1117.6981
0209 1418818359 1116.0549
0210 1418822265 1112.9390
0211 1418826171 1108.0065
0212 1418830078 1101.9670
0213 1418833984 1105.9523
0214 1418837890 1102.8827
0215 1418841796 1093.7810
0216 1418845703 1092.8845
0217 1418849609 1091.2700
0218 1418853515 1090.3051
0219 1418857421 1090.8811
0220 1418861328 1088.6711
0221 1418865234 1078.8199
0222 1418869140 1077.9508
0223 1418873046 1071.4379
0224 1418876953 1066.6726
0225 1418880859 1069.7886
0226 1418884765 1065.9825
0227 1418888671 1061.3613
0228 1418892578 1056.2366
0229 1418896484 1055.8876
0230 1418900390 1050.1836
0231 1418904296 1046.3826
0232 1418908203 1043.2960
0233 1418912109 1040.7493
0234 1418916015 1036.3787
0235 1418919921 1036.9475
0236 1418923828 1036.6685
0237 1418927734 1033.5637
0238 1418931640 1031.0199
0239 1418935546 1030.3385
0240 1418939453 1027.6355
0241 1418943359 1022.0215
0242 1418947265 1021.4208
0243 1418951171 1016.0731
0244 1418955078 1018.2297
0245 1418958984 1013.4238
0246 1418962890 1011.6965
0247 1418966796 1012.3495
0248 1418970703 1010.2999
0249 1418974609 1014.2316
0250 1418978515 1011.0231
0251 1418982421 1003.0973
0252 1418986328 1002.1392
0253 1418990234 1007.6458
0254 1418994140 1000.5628
0255 1418998046 1000.5691
0256 1419001953 1002.2188
0257 1419005859 1000.0782
0258 1419009765 1002.9609
0259 1419013671 1001.2766
0260 1419017578 999.8965
0261 1419021484 1000.5789
0262 1419025390 1000.3665
0263 1419029296 1000.1200
0264 1419033203 998.2991
0265 1419037109 997.7064
0266 1419041015 999.0762
0267 1419044921 1001.6536
0268 1419048828 1003.8956
0269 1419052734 1004.9929
0270 1419056640 1001.7911
0271 1419060546 1002.2295
0272 1419064453 999.5907
0273 1419068359 1001.4955
0274 1419072265 1004.0270
0275 1419076171 1000.4930
0276 1419080078 1008.4386
0277 1419083984 1004.1276
0278 1419087890 1003.0024
0279 1419091796 1003.7893
0280 1419095703 1011.9474
0281 1419099609 1006.4543
0282 1419103515 1009.2502
0283 1419107421 1015.4620
0284 1419111328 1012.4924
0285 1419115234 1018.0874
0286 1419119140 1017.3232
0287 1419123046 1012.5993
0288 1419126953 1015.1161
0289 1419130859 1017.7102
0290 1419134765 1023.2872
0291 1419138671 1023.7016
0292 1419142578 1024.4198
0293 1419146484 1025.2220
0294 1419150390 1027.9396
0295 1419154296 1028.8319
0296 1419158203 1028.7540
0297 1419162109 1032.9060
0298 1419166015 1031.1105
0299 1419169921 1033.1595
0300 1419173828 1032.4487
0301 1419177734 1035.0587
0302 1419181640 1040.2931
0303 1419185546 1041.7561
0304 1419189453 1042.5797
0305 1419193359 1040.6951
0306 1419197265 1045.8856
0307 1419201171 1043.5970
0308 1419205078 1043.3271
0309 1419208984 1047.5779
0310 1419212890 1050.1404
0311 1419216796 1048.8246
0312 1419220703 1052.3779
0313 1419224609 1052.6877
0314 1419228515 1053.5374
0315 1419232421 1054.7844
0316 1419236328 1054.0444
0317 1419240234 1055.3630
0318 1419244140 1057.9006
0319 1419248046 1057.1123
0320 1419251953 1058.3385
0321 1419255859 1061.4037
0322 1419259765 1060.7867
0323 1419263671 1060.9634
0324 1419267578 1063.0271
0325 1419271484 1063.8733
0326 1419275390 1066.3948
0327 1419279296 1062.2632
0328 1419283203 1059.8696
0329 1419287109 1062.5701
0330 1419291015 1067.0177
0331 1419294921 1066.0281
0332 1419298828 1062.8896
0333 1419302734 1066.3004
0334 1419306640 1067.9941
0335 1419310546 1068.6530
0336 1419314453 1068.8698
0337 1419318359 1073.1816
0338 1419322265 1072.6862
0339 1419326171 1072.1577
0340 1419330078 1075.7878
0341 1419333984 1067.6609
0342 1419337890 1068.8622
0343 1419341796 1072.7610
0344 1419345703 1073.5867
0345 1419349609 1075.1920
0346 1419353515 1073.6349
0347 1419357421 1073.3228
0348 1419361328 1072.8658
0349 1419365234 1076.8099
0350 1419369140 1072.9651
0351 1419373046 1072.8239
0352 1419376953 1078.2784
0353 1419380859 1078.1505
0354 1419384765 1076.4971
0355 1419388671 1073.1040
0356 1419392578 1074.9926
0357 1419396484 1078.3613
0358 1419400390 1072.3387
0359 1419404296 1079.8749
0360 1419408203 1078.9564
0361 1419412109 1077.0609
0362 1419416015 1072.9174
0363 1419419921 1076.4084
0364 1419423828 1075.1501
0365 1419427734 1077.4805
0366 1419431640 1075.0725
0367 1419435546 1079.4158
0368 1419439453 1077.3458
0369 1419443359 1075.1205
0370 1419447265 1073.9956
0371 1419451171 1078.6874
0372 1419455078 1075.7577
0373 1419458984 1079.2854
0374 1419462890 1079.7102
0375 1419466796 1080.5326
0376 1419470703 1081.3708
0377 1419474609 1086.4521
0378 1419478515 1078.0128
0379 1419482421 1082.4680
0380 1419486328 1080.7546
0381 1419490234 1076.8938
0382 1419494140 1079.7391
0383 1419498046 1080.1045
0384 1419501953 1080.9021
0385 1419505859 1080.5730
0386 1419509765 1077.8138
0387 1419513671 1079.4727
0388 1419517578 1080.2153
0389 1419521484 1079.7546
0390 1419525390 1083.2366
0391 1419529296 1075.4543
0392 1419533203 1077.6985
0393 1419537109 1078.2537
0394 1419541015 1081.2773
0395 1419544921 1081.2430
0396 1419548828 1078.8840
0397 1419552734 1078.4376
0398 1419556640 1084.2852
0399 1419560546 1078.5256
0400 1419564453 1080.7958
0401 1419568359 1080.8446
0402 1419572265 1081.7791
0403 1419576171 1080.1482
0404 1419580078 1078.7513
0405 1419583984 1082.4878
0406 1419587890 1082.9456
0407 1419591796 1081.7771
0408 1419595703 1083.8632
0409 1419599609 1085.8289
0410 1419603515 1079.8164
0411 1419607421 1082.8435
0412 1419611328 1082.1058
0413 1419615234 1082.1696
0414 1419619140 1082.8855
0415 1419623046 1080.8492
0416 1419626953 1083.1371
0417 1419630859 1079.0934
0418 1419634765 1074.6121
0419 1419638671 1079.6797
0420 1419642578 1079.0636
0421 1419646484 1078.0681
0422 1419650390 1080.8539
0423 1419654296 1076.3640
0424 1419658203 1077.0032
0425 1419662109 1075.4242
0426 1419666015 1073.1549
0427 1419669921 1077.7247
0428 1419673828 1076.5198
0429 1419677734 1075.1752
0430 1419681640 1073.4131
0431 1419685546 1075.0848
0432 1419689453 1070.2025
0433 1419693359 1066.2792
0434 1419697265 1070.6476
0435 1419701171 1074.1573
0436 1419705078 1068.8425
0437 1419708984 1068.2644
0438 1419712890 1066.7924
0439 1419716796 1067.7749
0440 1419720703 1065.0609
0441 1419724609 1066.3906
0442 1419728515 1066.9740
0443 1419732421 1065.4320
0444 1419736328 1060.8430
0445 1419740234 1063.8140
0446 1419744140 1061.3503
0447 1419748046 1058.7664
0448 1419751953 1058.6019
0449 1419755859 1058.8168
0450 1419759765 1058.6029
0451 1419763671 1058.2583
0452 1419767578 1053.2921
0453 1419771484 1057.2449
0454 1419775390 1055.0189
0455 1419779296 1051.3169
0456 1419783203 1050.3298
0457 1419787109 1050.3251
0458 1419791015 1048.3418
0459 1419794921 1047.5056
0460 1419798828 1048.7169
0461 1419802734 1050.7034
0462 1419806640 1048.6471
0463 1419810546 1047.2928
0464 1419814453 1044.3530
0465 1419818359 1044.1147
0466 1419822265 1041.5095
0467 1419826171 1046.9863
0468 1419830078 1040.4207
0469 1419833984 1037.2839
0470 1419837890 1033.9187
0471 1419841796 1034.3359
0472 1419845703 1037.4438
0473 1419849609 1037.6731
0474 1419853515 1036.4113
0475 1419857421 1034.1958
0476 1419861328 1031.1760
0477 1419865234 1033.8715
0478 1419869140 1030.9948
0479 1419873046 1031.4863
0480 1419876953 1029.5215
0481 1419880859 1029.9335
0482 1419884765 1025.1790
0483 1419888671 1028.3004
0484 1419892578 1024.4956
0485 1419896484 1024.2621
0486 1419900390 1025.5575
0487 1419904296 1027.2368
0488 1419908203 1022.3118
0489 1419912109 1024.2800
0490 1419916015 1026.1652
0491 1419919921 1024.4012
0492 1419923828 1022.8920
0493 1419927734 1020.8688
0494 1419931640 1022.3382
0495 1419935546 1025.2281
0496 1419939453 1020.7408
0497 1419943359 1018.8058
0498 1419947265 1020.9800
0499 1419951171 1022.1755
0500 1419955078 1023.9814
0501 1419958984 1021.4087
0502 1419962890 1019.2159
0503 1419966796 1018.9031
0504 1419970703 1021.5810
0505 1419974609 1016.9350
0506 1419978515 1017.5170
0507 1419982421 1022.3929
0508 1419986328 1019.0468
0509 1419990234 1015.1812
0510 1419994140 1016.6384
0511 1419998046 1018.0239
0512 1420001953 1020.3865
0513 1420005859 1022.6021
0514 1420009765 1017.4293
0515 1420013671 1019.1254
0516 1420017578 1019.7132
0517 1420021484 1017.9216
0518 1420025390 1017.5356
0519 1420029296 1021.3418
0520 1420033203 1018.9912
0521 1420037109 1022.4406
0522 1420041015 1016.6547
0523 1420044921 1021.9760
0524 1420048828 1018.5630
0525 1420052734 1017.7212
0526 1420056640 1024.0586
0527 1420060546 1016.3687
0528 1420064453 1021.1865
0529 1420068359 1021.2203
0530 1420072265 1018.5604
0531 1420076171 1024.7269
0532 1420080078 1023.4077
0533 1420083984 1018.4588
0534 1420087890 1021.8469
0535 1420091796 1023.2236
0536 1420095703 1021.3179
0537 1420099609 1019.3542
0538 1420103515 1020.7853
0539 1420107421 1021.5457
0540 1420111328 1019.3948
0541 1420115234 1018.8317
0542 1420119140 1019.6786
0543 1420123046 1023.8348
0544 1420126953 1024.8866
0545 1420130859 1022.1741
0546 1420134765 1017.3861
0547 1420138671 1017.0494
0548 1420142578 1022.3299
0549 1420146484 1020.9463
0550 1420150390 1020.6236
0551 1420154296 1019.0436
0552 1420158203 1018.7794
0553 1420162109 1020.5043
0554 1420166015 1021.2290
0555 1420169921 1019.9183
0556 1420173828 1025.0205
0557 1420177734 1021.5834
0558 1420181640 1019.5870
0559 1420185546 1023.7362
0560 1420189453 1024.6525
0561 1420193359 1025.2511
0562 1420197265 1017.8613
0563 1420201171 1018.2264
0564 1420205078 1020.2408
0565 1420208984 1020.3210
0566 1420212890 1016.4118
0567 1420216796 1015.9434
0568 1420220703 1013.1315
0569 1420224609 1018.2185
0570 1420228515 1021.6215
0571 1420232421 1014.4546
0572 1420236328 1015.9550
0573 1420240234 1016.8922
0574 1420244140 1014.6330
0575 1420248046 1014.4751
0576 1420251953 1010.2916
0577 1420255859 1012.3923
0578 1420259765 1011.8405
0579 1420263671 1010.5553
0580 1420267578 1010.7659
0581 1420271484 1007.2028
0582 1420275390 1011.8942
0583 1420279296 1011.8338
0584 1420283203 1010.0779
0585 1420287109 1008.5290
0586 1420291015 1005.2594
0587 1420294921 1006.6671
0588 1420298828 1008.4790
0589 1420302734 1005.3108
0590 1420306640 1004.5208
0591 1420310546 1004.9583
0592 1420314453 1002.9106
0593 1420318359 1003.6190
0594 1420322265 1003.3547
0595 1420326171 1001.7326
0596 1420330078 1000.1080
0597 1420333984 999.7632
0598 1420337890 1003.9289
0599 1420341796 1004.6829
0600 1420345703 1005.9901
0601 1420349609 1004.4833
0602 1420353515 1003.4193
0603 1420357421 1000.2846
0604 1420361328 999.2177
0605 1420365234 997.2478
0606 1420369140 996.0668
0607 1420373046 994.8007
0608 1420376953 995.7913
0609 1420380859 996.1760
0610 1420384765 997.1339
0611 1420388671 994.7750
0612 1420392578 991.8311
0613 1420396484 989.8637
0614 1420400390 989.0030
0615 1420404296 989.3742
0616 1420408203 987.6947
0617 1420412109 991.1804
0618 1420416015 990.1392
0619 1420419921 992.2369
0620 1420423828 986.7678
0621 1420427734 987.1527
0622 1420431640 988.0755
0623 1420435546 986.2500
0624 1420439453 989.5656
0625 1420443359 989.5748
0626 1420447265 986.0814
0627 1420451171 988.6301
0628 1420455078 984.2798
0629 1420458984 985.4410
0630 1420462890 985.3182
0631 1420466796 985.0111
0632 1420470703 984.1393
0633 1420474609 987.8776
0634 1420478515 983.0913
0635 1420482421 983.2070
0636 1420486328 984.5250
0637 1420490234 985.6664
0638 1420494140 986.4299
0639 1420498046 981.5627
0640 1420501953 987.1381
0641 1420505859 983.3735
0642 1420509765 986.0941
0643 1420513671 982.2394
0644 1420517578 988.4219
0645 1420521484 986.2386
0646 1420525390 985.6807
0647 1420529296 985.6768
0648 1420533203 984.4141
0649 1420537109 983.2241
0650 1420541015 985.6194
0651 1420544921 984.2921
0652 1420548828 986.0866
0653 1420552734 985.6411
0654 1420556640 983.8275
0655 1420560546 985.0742
0656 1420564453 985.7853
0657 1420568359 986.9527
0658 1420572265 986.5201
0659 1420576171 985.7188
0660 1420580078 986.7503
0661 1420583984 984.0234
0662 1420587890 984.5363
0663 1420591796 986.6279
0664 1420595703 988.2708
0665 1420599609 986.8764
0666 1420603515 986.0082
0667 1420607421 983.6393
0668 1420611328 984.1467
0669 1420615234 991.3337
0670 1420619140 989.6116
0671 1420623046 985.1483
0672 1420626953 987.7564
0673 1420630859 984.7333
0674 1420634765 986.5742
0675 1420638671 985.2196
0676 1420642578 983.4776
0677 1420646484 986.1177
0678 1420650390 984.0848
0679 1420654296 981.9445
0680 1420658203 984.0148
0681 1420662109 984.8674
0682 1420666015 984.8907
0683 1420669921 985.5479
0684 1420673828 984.4429
0685 1420677734 982.8833
0686 1420681640 983.9599
0687 1420685546 985.9963
0688 1420689453 980.9358
0689 1420693359 976.0872
0690 1420697265 981.3563
0691 1420701171 982.9844
0692 1420705078 984.2616
0693 1420708984 981.4891
0694 1420712890 976.5638
0695 1420716796 980.9258
0696 1420720703 979.1628
0697 1420724609 976.6261
0698 1420728515 977.9713
0699 1420732421 981.8885
0700 1420736328 979.9693
0701 1420740234 978.0513
0702 1420744140 976.1235
0703 1420748046 973.7898
0704 1420751953 974.0087
0705 1420755859 973.3688
0706 1420759765 977.6116
0707 1420763671 972.6506
0708 1420767578 973.8191
0709 1420771484 972.6109
0710 1420775390 975.0896
0711 1420779296 971.3710
0712 1420783203 969.4318
0713 1420787109 970.0853
0714 1420791015 977.1026
0715 1420794921 969.3694
0716 1420798828 966.4769
0717 1420802734 966.7277
0718 1420806640 967.9134
0719 1420810546 971.6552
0720 1420814453 969.7556
0721 1420818359 968.3000
0722 1420822265 964.7855
0723 1420826171 970.6575
0724 1420830078 964.3356
0725 1420833984 964.2263
0726 1420837890 964.8902
0727 1420841796 965.7892
0728 1420845703 962.6497
0729 1420849609 966.8306
0730 1420853515 965.1306
0731 1420857421 965.8216
0732 1420861328 968.3459
0733 1420865234 965.9987
0734 1420869140 965.2421
0735 1420873046 965.5797
0736 1420876953 962.3813
0737 1420880859 964.9752
0738 1420884765 962.1700
0739 1420888671 964.7255
0740 1420892578 964.8759
0741 1420896484 965.0738
0742 1420900390 965.8288
0743 1420904296 964.3538
0744 1420908203 963.1065
0745 1420912109 967.0793
0746 1420916015 966.4623
0747 1420919921 967.5206
0748 1420923828 969.4848
0749 1420927734 967.7316
0750 1420931640 968.1909
0751 1420935546 969.1832
0752 1420939453 970.5093
0753 1420943359 971.2808
0754 1420947265 968.7382
0755 1420951171 972.9277
0756 1420955078 972.3360
0757 1420958984 970.4780
0758 1420962890 976.1395
0759 1420966796 973.8359
0760 1420970703 973.4537
0761 1420974609 974.8817
0762 1420978515 976.9616
0763 1420982421 978.1128
0764 1420986328 978.5065
0765 1420990234 981.2957
0766 1420994140 977.9243
0767 1420998046 978.6508
0768 1421001953 979.6234
0769 1421005859 983.1937
0770 1421009765 983.9607
0771 1421013671 984.6276
0772 1421017578 987.6486
0773 1421021484 990.0603
0774 1421025390 988.8158
0775 1421029296 987.1642
0776 1421033203 989.0677
0777 1421037109 989.1985
0778 1421041015 992.1348
0779 1421044921 993.8804
0780 1421048828 994.9220
0781 1421052734 994.8745
0782 1421056640 992.1546
0783 1421060546 993.6075
0784 1421064453 998.4578
0785 1421068359 996.7461
0786 1421072265 999.1345
0787 1421076171 1000.6394
0788 1421080078 1000.7702
0789 1421083984 1004.1780
0790 1421087890 1007.3928
0791 1421091796 1004.7019
0792 1421095703 1004.0298
0793 1421099609 1009.0885
0794 1421103515 1009.0894
0795 1421107421 1005.9096
0796 1421111328 1008.6702
0797 1421115234 1006.7200
0798 1421119140 1004.6931
0799 1421123046 1011.0557
0800 1421126953 1014.8445
0801 1421130859 1013.4617
0802 1421134765 1010.7547
0803 1421138671 1011.4939
0804 1421142578 1012.9639
0805 1421146484 1013.0478
0806 1421150390 1007.9806
0807 1421154296 1012.9222
0808 1421158203 1016.6914
0809 1421162109 1015.0220
0810 1421166015 1015.7720
0811 1421169921 1011.6255
0812 1421173828 1015.1283
0813 1421177734 1016.0822
0814 1421181640 1017.6479
0815 1421185546 1011.7242
0816 1421189453 1014.2076
0817 1421193359 1015.0080
0818 1421197265 1016.5901
0819 1421201171 1015.9828
0820 1421205078 1012.9164
0821 1421208984 1012.0297
0822 1421212890 1013.7540
0823 1421216796 1013.6224
0824 1421220703 1011.1544
0825 1421224609 1010.0818
0826 1421228515 1013.5959
0827 1421232421 1012.6808
0828 1421236328 1010.0316
0829 1421240234 1010.4540
0830 1421244140 1007.9666
0831 1421248046 1009.5655
0832 1421251953 1009.8281
0833 1421255859 1008.6596
0834 1421259765 1002.8614
0835 1421263671 1007.1749
0836 1421267578 1009.5571
0837 1421271484 1008.3169
0838 1421275390 1008.0143
0839 1421279296 1005.8812
0840 1421283203 1005.4127
0841 1421287109 1002.5429
0842 1421291015 1003.0760
0843 1421294921 1003.9279
0844 1421298828 1001.0610
0845 1421302734 997.5963
0846 1421306640 995.0378
0847 1421310546 992.5468
0848 1421314453 996.8983
0849 1421318359 994.2225
0850 1421322265 994.7826
0851 1421326171 990.1373
0852 1421330078 994.5201
0853 1421333984 990.1491
0854 1421337890 990.4919
0855 1421341796 983.4071
0856 1421345703 983.8641
0857 1421349609 988.3854
0858 1421353515 985.6785
0859 1421357421 986.4820
0860 1421361328 984.4885
0861 1421365234 982.8243
0862 1421369140 987.7908
0863 1421373046 983.6140
0864 1421376953 985.6995
0865 1421380859 985.8560
0866 1421384765 983.3198
0867 1421388671 980.7206
0868 1421392578 985.1964
0869 1421396484 978.7587
0870 1421400390 978.4705
0871 1421404296 978.8751
0872 1421408203 976.2690
0873 1421412109 977.5932
0874 1421416015 974.7744
0875 1421419921 975.0392
0876 1421423828 975.7542
0877 1421427734 978.0546
0878 1421431640 974.7531
0879 1421435546 976.3259
0880 1421439453 979.3354
0881 1421443359 977.7931
0882 1421447265 977.0280
0883 1421451171 976.1202
0884 1421455078 980.0070
0885 1421458984 977.6234
0886 1421462890 977.5186
0887 1421466796 975.2585
0888 1421470703 979.3155
0889 1421474609 977.7505
0890 1421478515 982.8217
0891 1421482421 977.9317
0892 1421486328 977.8568
0893 1421490234 979.5212
0894 1421494140 979.6003
0895 1421498046 986.8911
0896 1421501953 984.4540
0897 1421505859 983.9095
0898 1421509765 985.5602
0899 1421513671 986.8671
0900 1421517578 985.4174
0901 1421521484 989.5298
0902 1421525390 987.2473
0903 1421529296 991.2668
0904 1421533203 986.4863
0905 1421537109 990.9552
0906 1421541015 994.1583
0907 1421544921 992.8261
0908 1421548828 991.7488
0909 1421552734 997.7335
0910 1421556640 998.1987
0911 1421560546 999.1484
0912 1421564453 996.5422
0913 1421568359 998.3807
0914 1421572265 1002.4414
0915 1421576171 1003.2648
0916 1421580078 1003.2023
0917 1421583984 1004.5572
0918 1421587890 1006.1502
0919 1421591796 1007.3924
0920 1421595703 1007.5126
0921 1421599609 1010.8196
0922 1421603515 1012.8354
0923 1421607421 1012.9175
0924 1421611328 1015.9238
0925 1421615234 1015.7491
0926 1421619140 1016.0756
0927 1421623046 1018.2018
0928 1421626953 1016.7864
0929 1421630859 1019.9816
0930 1421634765 1021.2483
0931 1421638671 1017.9615
0932 1421642578 1019.1658
0933 1421646484 1026.5721
0934 1421650390 1023.7847
0935 1421654296 1026.8944
0936 1421658203 1028.1241
0937 1421662109 1026.6401
0938 1421666015 1029.9349
0939 1421669921 1028.9895
0940 1421673828 1029.3143
0941 1421677734 1028.4454
0942 1421681640 1032.3308
0943 1421685546 1029.9205
0944 1421689453 1030.7184
0945 1421693359 1030.8510
0946 1421697265 1030.0182
0947 1421701171 1033.6349
0948 1421705078 1030.0597
0949 1421708984 1032.7417
0950 1421712890 1033.0480
0951 1421716796 1033.6482
0952 1421720703 1036.5035
0953 1421724609 1035.5345
0954 1421728515 1036.6705
0955 1421732421 1036.2830
0956 1421736328 1033.3492
0957 1421740234 1035.5125
0958 1421744140 1032.8138
0959 1421748046 1033.6973
0960 1421751953 1037.8429
0961 1421755859 1037.7290
0962 1421759765 1035.3062
0963 1421763671 1032.0323
0964 1421767578 1030.5604
0965 1421771484 1032.0964
0966 1421775390 1026.9030
0967 1421779296 1031.4976
0968 1421783203 1028.3285
0969 1421787109 1028.8545
0970 1421791015 1030.0490
0971 1421794921 1029.1000
0972 1421798828 1025.5631
0973 1421802734 1022.1418
0974 1421806640 1024.2261
0975 1421810546 1023.7461
0976 1421814453 1018.6663
0977 1421818359 1018.5877
0978 1421822265 1020.7620
0979 1421826171 1018.5508
0980 1421830078 1014.8690
0981 1421833984 1017.1934
0982 1421837890 1012.3272
0983 1421841796 1012.9814
0984 1421845703 1018.0129
0985 1421849609 1013.4837
0986 1421853515 1011.8318
0987 1421857421 1011.4579
0988 1421861328 1007.0446
0989 1421865234 1006.8729
0990 1421869140 1006.5200
0991 1421873046 1004.5156
0992 1421876953 995.8732
0993 1421880859 993.2955
0994 1421884765 1000.9216
0995 1421888671 1001.8039
0996 1421892578 998.2019
0997 1421896484 994.6082
0998 1421900390 993.6150
0999 1421904296 993.3949
1000 1421908203 991.8604
1001 1421912109 992.7109
1002 1421916015 990.6046
1003 1421919921 990.7797
1004 1421923828 987.6133
1005 1421927734 988.4209
1006 1421931640 988.5859
1007 1421935546 985.2011
1008 1421939453 987.2410
1009 1421943359 987.1648
1010 1421947265 985.3601
1011 1421951171 981.1743
1012 1421955078 983.0670
1013 1421958984 983.0563
1014 1421962890 981.9479
1015 1421966796 982.7038
1016 1421970703 981.0285
1017 1421974609 985.2247
1018 1421978515 984.1534
1019 1421982421 979.3891
1020 1421986328 984.2302
1021 1421990234 984.5248
1022 1421994140 986.9568
1023 1421998046 1018.3249
1024 1422001953 1098.2412
1025 1422005859 1014.2351
1026 1422009765 986.2101
1027 1422013671 982.0925
1028 1422017578 978.6207
1029 1422021484 981.7584
1030 1422025390 981.3597
1031 1422029296 981.4219
1032 1422033203 978.7886
1033 1422037109 981.7681
1034 1422041015 979.7328
1035 1422044921 977.4500
1036 1422048828 978.6436
1037 1422052734 977.5170
1038 1422056640 978.0139
1039 1422060546 980.7531
1040 1422064453 982.9970
1041 1422068359 985.5283
1042 1422072265 981.1556
1043 1422076171 987.0944
1044 1422080078 980.9423
1045 1422083984 987.5041
1046 1422087890 985.1446
1047 1422091796 986.8447
1048 1422095703 984.0660
1049 1422099609 990.6513
1050 1422103515 987.6393
1051 1422107421 993.9467
1052 1422111328 995.4054
1053 1422115234 990.7984
1054 1422119140 993.3936
1055 1422123046 993.8972
1056 1422126953 994.7267
1057 1422130859 995.9802
1058 1422134765 995.8786
1059 1422138671 997.2029
1060 1422142578 1003.6333
1061 1422146484 1001.8303
1062 1422150390 1005.1672
1063 1422154296 1003.8126
1064 1422158203 1005.9718
1065 1422162109 1002.6948
1066 1422166015 1006.4284
1067 1422169921 1003.8617
1068 1422173828 1013.0920
1069 1422177734 1009.5056
1070 1422181640 1011.5802
1071 1422185546 1016.4929
1072 1422189453 1014.8661
1073 1422193359 1012.0109
1074 1422197265 1016.4611
1075 1422201171 1018.1924
1076 1422205078 1019.4390
1077 1422208984 1018.3463
1078 1422212890 1022.6116
1079 1422216796 1021.2037
1080 1422220703 1021.5287
1081 1422224609 1018.0000
1082 1422228515 1021.3776
1083 1422232421 1020.6434
1084 1422236328 1020.5934
1085 1422240234 1020.0737
1086 1422244140 1024.9996
1087 1422248046 1025.8621
1088 1422251953 1024.4480
1089 1422255859 1027.9863
1090 1422259765 1024.1284
1091 1422263671 1022.3920
1092 1422267578 1023.8760
1093 1422271484 1020.5374
1094 1422275390 1023.8818
1095 1422279296 1025.8312
1096 1422283203 1024.6919
1097 1422287109 1024.6956
1098 1422291015 1022.7182
1099 1422294921 1025.0596
1100 1422298828 1023.5912
1101 1422302734 1024.7194
1102 1422306640 1020.0497
1103 1422310546 1027.8671
1104 1422314453 1021.0395
1105 1422318359 1019.4849
1106 1422322265 1015.6918
1107 1422326171 1017.0889
1108 1422330078 1018.0878
1109 1422333984 1017.6190
1110 1422337890 1016.2630
1111 1422341796 1017.9448
1112 1422345703 1014.2254
1113 1422349609 1014.2266
1114 1422353515 1012.0731
1115 1422357421 1014.0432
1116 1422361328 1011.0347
1117 1422365234 1012.9534
1118 1422369140 1008.9941
1119 1422373046 1010.1971
1120 1422376953 1007.5811
1121 1422380859 1004.8876
1122 1422384765 1005.2268
1123 1422388671 1002.3805
1124 1422392578 996.6401
1125 1422396484 996.3156
1126 1422400390 999.2115
1127 1422404296 999.7248
1128 1422408203 997.9033
1129 1422412109 994.2754
1130 1422416015 994.0826
1131 1422419921 990.6503
1132 1422423828 988.0018
1133 1422427734 989.1549
1134 1422431640 987.0798
1135 1422435546 984.7729
1136 1422439453 987.8329
1137 1422443359 980.2139
1138 1422447265 982.4429
1139 1422451171 977.8820
1140 1422455078 980.5475
1141 1422458984 979.6630
1142 1422462890 975.2234
1143 1422466796 980.9667
1144 1422470703 975.9608
1145 1422474609 975.8446
1146 1422478515 972.1331
1147 1422482421 975.6174
1148 1422486328 972.7856
1149 1422490234 972.7549
1150 1422494140 969.8950
1151 1422498046 966.0567
1152 1422501953 968.4229
1153 1422505859 969.6959
1154 1422509765 968.9843
1155 1422513671 965.0656
1156 1422517578 966.0797
1157 1422521484 966.2909
1158 1422525390 967.1107
1159 1422529296 965.5470
1160 1422533203 963.6046
1161 1422537109 961.7076
1162 1422541015 962.1746
1163 1422544921 962.0902
1164 1422548828 965.1104
1165 1422552734 963.2404
1166 1422556640 961.7761
1167 1422560546 961.0718
1168 1422564453 962.3000
1169 1422568359 959.7407
1170 1422572265 957.2443
1171 1422576171 960.7866
1172 1422580078 960.2503
1173 1422583984 958.1036
1174 1422587890 963.7572
1175 1422591796 961.8358
1176 1422595703 963.3773
1177 1422599609 965.1627
1178 1422603515 963.3303
1179 1422607421 966.8873
1180 1422611328 962.6589
1181 1422615234 964.5505
1182 1422619140 966.3214
1183 1422623046 966.8127
1184 1422626953 965.3251
1185 1422630859 966.3828
1186 1422634765 969.6403
1187 1422638671 969.7062
1188 1422642578 969.8880
1189 1422646484 970.8368
1190 1422650390 978.1191
1191 1422654296 973.7632
1192 1422658203 972.6190
1193 1422662109 971.0916
1194 1422666015 978.2574
1195 1422669921 974.0904
1196 1422673828 978.5851
1197 1422677734 980.8680
1198 1422681640 974.4558
1199 1422685546 975.3560
1200 1422689453 980.9249
1201 1422693359 982.3924
1202 1422697265 981.6302
1203 1422701171 984.2777
1204 1422705078 981.1116
1205 1422708984 981.6506
1206 1422712890 985.3861
1207 1422716796 987.4404
1208 1422720703 984.9615
1209 1422724609 981.6149
1210 1422728515 987.0011
1211 1422732421 985.9151
1212 1422736328 986.9004
1213 1422740234 989.2998
1214 1422744140 990.6933
1215 1422748046 993.5577
1216 1422751953 991.2097
1217 1422755859 997.0262
1218 1422759765 994.9626
1219 1422763671 996.3021
1220 1422767578 995.1913
1221 1422771484 994.2072
1222 1422775390 998.5088
1223 1422779296 998.3218
1224 1422783203 994.0598
1225 1422787109 1000.3329
1226 1422791015 999.9839
1227 1422794921 1002.1382
1228 1422798828 995.6750
1229 1422802734 994.5947
1230 1422806640 1001.0121
1231 1422810546 996.5219
1232 1422814453 1000.9735
1233 1422818359 998.3375
1234 1422822265 1000.4459
1235 1422826171 998.8242
1236 1422830078 998.7693
1237 1422833984 992.7802
1238 1422837890 996.2517
1239 1422841796 1000.0637
1240 1422845703 993.5571
1241 1422849609 999.8495
1242 1422853515 997.2555
1243 1422857421 995.0679
1244 1422861328 995.5168
1245 1422865234 997.8914
1246 1422869140 993.7528
1247 1422873046 993.9864
1248 1422876953 994.3916
1249 1422880859 991.6865
1250 1422884765 990.3813
1251 1422888671 993.6394
1252 1422892578 992.2180
1253 1422896484 989.6993
1254 1422900390 985.2597
1255 1422904296 991.9387
1256 1422908203 987.8259
1257 1422912109 986.8183
1258 1422916015 984.3019
1259 1422919921 984.5469
1260 1422923828 983.0199
1261 1422927734 983.6027
1262 1422931640 983.1169
1263 1422935546 978.9383
1264 1422939453 979.6005
1265 1422943359 979.7527
1266 1422947265 981.7958
1267 1422951171 977.2572
1268 1422955078 975.0920
1269 1422958984 974.0992
1270 1422962890 972.6085
1271 1422966796 971.5043
1272 1422970703 968.0849
1273 1422974609 969.2248
1274 1422978515 971.6471
1275 1422982421 967.0329
1276 1422986328 968.5753
1277 1422990234 968.3728
1278 1422994140 964.8658
1279 1422998046 966.9132
1280 1423001953 958.1432
1281 1423005859 962.8847
1282 1423009765 966.3369
1283 1423013671 960.9086
1284 1423017578 964.1775
1285 1423021484 962.5164
1286 1423025390 959.6305
1287 1423029296 957.7964
1288 1423033203 957.6902
1289 1423037109 957.9027
1290 1423041015 954.5824
1291 1423044921 956.0029
1292 1423048828 959.3816
1293 1423052734 954.5468
1294 1423056640 952.5115
1295 1423060546 951.8047
1296 1423064453 951.9480
1297 1423068359 951.5665
1298 1423072265 948.0363
1299 1423076171 948.7469
1300 1423080078 948.3270
1301 1423083984 950.0086
1302 1423087890 949.9230
1303 1423091796 947.6452
1304 1423095703 947.4270
1305 1423099609 945.7482
1306 1423103515 946.5333
1307 1423107421 946.1688
1308 1423111328 945.4754
1309 1423115234 946.5753
1310 1423119140 946.8282
1311 1423123046 946.8976
1312 1423126953 947.9583
1313 1423130859 947.7124
1314 1423134765 949.8016
1315 1423138671 945.8879
1316 1423142578 944.4705
1317 1423146484 944.9502
1318 1423150390 946.4453
1319 1423154296 946.7070
1320 1423158203 947.6102
1321 1423162109 945.4770
1322 1423166015 947.3568
1323 1423169921 949.3319
1324 1423173828 946.2670
1325 1423177734 949.1411
1326 1423181640 950.0270
1327 1423185546 945.4271
1328 1423189453 947.9902
1329 1423193359 951.9725
1330 1423197265 952.6620
1331 1423201171 950.5833
1332 1423205078 951.8649
1333 1423208984 949.1612
1334 1423212890 950.3790
1335 1423216796 950.2803
1336 1423220703 954.3494
1337 1423224609 950.6541
1338 1423228515 950.5948
1339 1423232421 949.0580
1340 1423236328 955.6379
1341 1423240234 955.6552
1342 1423244140 959.6814
1343 1423248046 954.7583
1344 1423251953 955.1453
1345 1423255859 958.7204
1346 1423259765 957.0234
1347 1423263671 957.3253
1348 1423267578 957.1595
1349 1423271484 957.9942
1350 1423275390 957.4835
1351 1423279296 958.9691
1352 1423283203 955.3174
1353 1423287109 957.6208
1354 1423291015 958.7690
1355 1423294921 959.5764
1356 1423298828 960.3694
1357 1423302734 964.5081
1358 1423306640 959.1566
1359 1423310546 962.3644
1360 1423314453 961.5869
1361 1423318359 960.8295
1362 1423322265 960.3725
1363 1423326171 960.8994
1364 1423330078 961.6147
1365 1423333984 959.0278
1366 1423337890 961.2514
1367 1423341796 964.8936
1368 1423345703 964.2983
1369 1423349609 958.3669
1370 1423353515 964.8456
1371 1423357421 960.9954
1372 1423361328 963.7647
1373 1423365234 965.3826
1374 1423369140 965.3683
1375 1423373046 960.7248
1376 1423376953 963.4595
1377 1423380859 962.2783
1378 1423384765 962.6199
1379 1423388671 961.8050
1380 1423392578 959.2160
1381 1423396484 965.0949
1382 1423400390 964.0399
1383 1423404296 961.7136
1384 1423408203 963.5755
1385 1423412109 959.0601
1386 1423416015 962.5519
1387 1423419921 962.5380
1388 1423423828 962.3414
1389 1423427734 961.7156
1390 1423431640 963.3175
1391 1423435546 963.1753
1392 1423439453 965.6478
1393 1423443359 964.2634
1394 1423447265 962.3239
1395 1423451171 959.6926
1396 1423455078 962.2322
1397 1423458984 960.0980
1398 1423462890 960.9788
1399 1423466796 961.0931
1400 1423470703 958.9126
1401 1423474609 958.2808
1402 1423478515 961.8143
1403 1423482421 959.4225
1404 1423486328 958.6278
1405 1423490234 960.0871
1406 1423494140 963.3805
1407 1423498046 959.5852
1408 1423501953 959.6004
1409 1423505859 957.5789
1410 1423509765 958.0297
1411 1423513671 958.8348
1412 1423517578 956.2008
1413 1423521484 956.3229
1414 1423525390 959.0133
1415 1423529296 958.0323
1416 1423533203 961.1041
1417 1423537109 959.7838
1418 1423541015 960.2465
1419 1423544921 958.0206
1420 1423548828 959.1001
1421 1423552734 958.3832
1422 1423556640 958.3004
1423 1423560546 959.8842
1424 1423564453 956.8501
1425 1423568359 961.1193
1426 1423572265 962.1312
1427 1423576171 962.3428
1428 1423580078 962.0271
1429 1423583984 957.9776
1430 1423587890 961.0413
1431 1423591796 964.5656
1432 1423595703 963.5961
1433 1423599609 958.6918
1434 1423603515 957.9169
1435 1423607421 962.3425
1436 1423611328 963.4841
1437 1423615234 961.9836
1438 1423619140 961.8594
1439 1423623046 955.7064
1440 1423626953 961.3763
1441 1423630859 963.2378
1442 1423634765 961.7595
1443 1423638671 964.2598
1444 1423642578 967.9763
1445 1423646484 965.3810
1446 1423650390 964.5040
1447 1423654296 967.3513
1448 1423658203 966.4183
1449 1423662109 968.8256
1450 1423666015 968.4067
1451 1423669921 967.0403
1452 1423673828 969.6437
1453 1423677734 970.9332
1454 1423681640 970.5975
1455 1423685546 970.5988
1456 1423689453 969.3004
1457 1423693359 970.5247
1458 1423697265 973.1692
1459 1423701171 976.3533
1460 1423705078 976.8841
1461 1423708984 979.1532
1462 1423712890 974.0504
1463 1423716796 972.6640
1464 1423720703 978.0435
1465 1423724609 974.0815
1466 1423728515 978.3322
1467 1423732421 977.7908
1468 1423736328 977.2942
1469 1423740234 980.1405
1470 1423744140 979.9189
1471 1423748046 977.5231
1472 1423751953 976.0695
1473 1423755859 984.1562
1474 1423759765 982.1890
1475 1423763671 979.9868
1476 1423767578 980.6020
1477 1423771484 983.6170
1478 1423775390 980.3520
1479 1423779296 985.0583
1480 1423783203 986.1730
1481 1423787109 981.9459
1482 1423791015 982.2405
1483 1423794921 984.2686
1484 1423798828 983.4946
1485 1423802734 980.4108
1486 1423806640 983.2540
1487 1423810546 990.0787
1488 1423814453 984.5276
1489 1423818359 987.5714
1490 1423822265 985.1869
1491 1423826171 986.0018
1492 1423830078 990.9146
1493 1423833984 987.4236
1494 1423837890 987.3667
1495 1423841796 986.7382
1496 1423845703 987.1577
1497 1423849609 988.3882
1498 1423853515 990.5626
1499 1423857421 989.4163
1500 1423861328 986.8641
1501 1423865234 988.2632
1502 1423869140 986.2584
1503 1423873046 986.9266
1504 1423876953 990.2865
1505 1423880859 989.2553
1506 1423884765 988.3104
1507 1423888671 988.1703
1508 1423892578 987.2905
1509 1423896484 986.1542
1510 1423900390 985.8764
1511 1423904296 984.5011
1512 1423908203 986.7734
1513 1423912109 988.2585
1514 1423916015 989.6600
1515 1423919921 988.0942
1516 1423923828 988.0007
1517 1423927734 988.2415
1518 1423931640 986.3746
1519 1423935546 987.9553
1520 1423939453 985.8275
1521 1423943359 986.0585
1522 1423947265 984.8254
1523 1423951171 987.9504
1524 1423955078 990.1276
1525 1423958984 985.8809
1526 1423962890 983.5975
1527 1423966796 982.7913
1528 1423970703 983.4682
1529 1423974609 983.7089
1530 1423978515 983.0741
1531 1423982421 983.9150
1532 1423986328 982.5433
1533 1423990234 983.3610
1534 1423994140 985.3975
1535 1423998046 985.9116
1536 1424001953 992.9117
1537 1424005859 985.4857
1538 1424009765 983.0190
1539 1424013671 981.7712
1540 1424017578 984.0947
1541 1424021484 983.9985
1542 1424025390 983.6649
1543 1424029296 983.4866
1544 1424033203 983.5903
1545 1424037109 984.9298
1546 1424041015 982.8654
1547 1424044921 985.2448
1548 1424048828 983.3474
1549 1424052734 978.9213
1550 1424056640 985.5070
1551 1424060546 977.6243
1552 1424064453 983.7792
1553 1424068359 987.2507
1554 1424072265 984.4031
1555 1424076171 985.0342
1556 1424080078 983.1989
1557 1424083984 982.8207
1558 1424087890 987.5232
1559 1424091796 988.0937
1560 1424095703 985.1920
1561 1424099609 986.4437
1562 1424103515 990.0940
1563 1424107421 985.3520
1564 1424111328 990.2094
1565 1424115234 987.3395
1566 1424119140 988.0160
1567 1424123046 990.4238
1568 1424126953 988.6733
1569 1424130859 991.5454
1570 1424134765 988.3599
1571 1424138671 996.0129
1572 1424142578 991.2125
1573 1424146484 993.0779
1574 1424150390 990.8809
1575 1424154296 990.3688
1576 1424158203 995.5293
1577 1424162109 996.1550
1578 1424166015 996.0049
1579 1424169921 996.4413
1580 1424173828 999.0815
1581 1424177734 1001.5085
1582 1424181640 998.7317
1583 1424185546 1001.4803
1584 1424189453 1000.0414
1585 1424193359 999.0265
1586 1424197265 1004.8948
1587 1424201171 1002.8470
1588 1424205078 1003.6406
1589 1424208984 1004.9473
1590 1424212890 1006.9182
1591 1424216796 1008.5969
1592 1424220703 1010.5234
1593 1424224609 1005.7418
1594 1424228515 1012.3502
1595 1424232421 1012.9609
1596 1424236328 1012.2878
1597 1424240234 1010.8804
1598 1424244140 1010.3160
1599 1424248046 1015.1181
1600 1424251953 1015.2590
1601 1424255859 1011.5704
1602 1424259765 1015.7316
1603 1424263671 1017.0458
1604 1424267578 1015.9503
1605 1424271484 1010.6866
1606 1424275390 1017.7569
1607 1424279296 1020.4796
1608 1424283203 1018.7856
1609 1424287109 1021.8143
1610 1424291015 1023.5140
1611 1424294921 1021.1786
1612 1424298828 1019.3159
1613 1424302734 1023.4742
1614 1424306640 1023.3788
1615 1424310546 1027.1746
1616 1424314453 1024.6733
1617 1424318359 1027.3385
1618 1424322265 1022.0739
1619 1424326171 1024.9962
1620 1424330078 1022.5383
1621 1424333984 1023.1169
1622 1424337890 1025.7554
1623 1424341796 1029.1901
1624 1424345703 1028.9886
1625 1424349609 1029.9899
1626 1424353515 1033.7111
1627 1424357421 1032.5972
1628 1424361328 1024.6539
1629 1424365234 1028.8279
1630 1424369140 1028.5769
1631 1424373046 1029.0431
1632 1424376953 1029.2605
1633 1424380859 1030.2140
1634 1424384765 1033.3846
1635 1424388671 1030.2684
1636 1424392578 1028.6482
1637 1424396484 1029.5046
1638 1424400390 1029.8121
1639 1424404296 1030.5925
1640 1424408203 1031.7954
1641 1424412109 1027.9910
1642 1424416015 1030.7812
1643 1424419921 1034.2430
1644 1424423828 1032.6069
1645 1424427734 1029.9919
1646 1424431640 1028.2991
1647 1424435546 1031.1565
1648 1424439453 1027.7404
1649 1424443359 1028.6385
1650 1424447265 1032.4921
1651 1424451171 1030.9093
1652 1424455078 1029.7913
1653 1424458984 1032.8312
1654 1424462890 1029.9547
1655 1424466796 1029.0447
1656 1424470703 1030.3938
1657 1424474609 1024.6738
1658 1424478515 1026.4009
1659 1424482421 1028.3383
1660 1424486328 1025.9526
1661 1424490234 1026.9523
1662 1424494140 1027.5692
1663 1424498046 1030.4171
1664 1424501953 1027.4161
1665 1424505859 1029.0293
1666 1424509765 1030.7107
1667 1424513671 1030.9305
1668 1424517578 1025.4749
1669 1424521484 1025.1787
1670 1424525390 1024.6479
1671 1424529296 1020.8830
1672 1424533203 1023.8275
1673 1424537109 1028.9170
1674 1424541015 1024.4678
1675 1424544921 1024.8536
1676 1424548828 1027.5242
1677 1424552734 1028.6711
1678 1424556640 1028.6808
1679 1424560546 1019.7465
1680 1424564453 1021.6027
1681 1424568359 1021.9648
1682 1424572265 1023.8631
1683 1424576171 1022.7844
1684 1424580078 1024.1443
1685 1424583984 1026.8087
1686 1424587890 1024.0714
1687 1424591796 1024.9742
1688 1424595703 1022.9959
1689 1424599609 1025.2118
1690 1424603515 1019.1298
1691 1424607421 1021.7325
1692 1424611328 1021.8847
1693 1424615234 1022.9413
1694 1424619140 1024.4126
1695 1424623046 1018.1724
1696 1424626953 1020.9809
1697 1424630859 1022.4974
1698 1424634765 1016.5682
1699 1424638671 1022.8066
1700 1424642578 1018.7421
1701 1424646484 1015.6920
1702 1424650390 1019.7231
1703 1424654296 1016.7902
1704 1424658203 1020.7358
1705 1424662109 1017.8289
1706 1424666015 1017.1130
1707 1424669921 1016.1869
1708 1424673828 1015.1910
1709 1424677734 1020.4357
1710 1424681640 1019.5131
1711 1424685546 1015.7477
1712 1424689453 1017.3202
1713 1424693359 1011.0134
1714 1424697265 1013.1573
1715 1424701171 1016.1277
1716 1424705078 1009.4952
1717 1424708984 1009.7357
1718 1424712890 1010.6209
1719 1424716796 1010.8302
1720 1424720703 1005.6793
1721 1424724609 1007.4920
1722 1424728515 1006.4338
1723 1424732421 1007.7119
1724 1424736328 1008.3670
1725 1424740234 1004.8825
1726 1424744140 1005.7405
1727 1424748046 1004.0204
1728 1424751953 1004.9061
1729 1424755859 999.5889
1730 1424759765 1000.2737
1731 1424763671 998.4175
1732 1424767578 1000.6229
1733 1424771484 994.6252
1734 1424775390 994.5454
1735 1424779296 993.3087
1736 1424783203 992.5416
1737 1424787109 993.2153
1738 1424791015 993.0707
1739 1424794921 986.8988
1740 1424798828 985.3129
1741 1424802734 989.2023
1742 1424806640 982.9544
1743 1424810546 979.9982
1744 1424814453 980.2238
1745 1424818359 978.8015
1746 1424822265 976.7620
1747 1424826171 978.9065
1748 1424830078 974.2031
1749 1424833984 975.6386
1750 1424837890 976.1514
1751 1424841796 975.2468
1752 1424845703 970.5383
1753 1424849609 967.9878
1754 1424853515 966.1762
1755 1424857421 965.6633
1756 1424861328 963.7294
1757 1424865234 964.0736
1758 1424869140 959.4915
1759 1424873046 959.6708
1760 1424876953 963.2517
1761 1424880859 959.5222
1762 1424884765 956.3713
1763 1424888671 955.9535
1764 1424892578 955.1397
1765 1424896484 956.7655
1766 1424900390 954.5240
1767 1424904296 951.1705
1768 1424908203 949.6274
1769 1424912109 947.7227
1770 1424916015 950.3174
1771 1424919921 945.0921
1772 1424923828 947.7785
1773 1424927734 942.2011
1774 1424931640 949.6060
1775 1424935546 942.0168
1776 1424939453 945.1319
1777 1424943359 943.0501
1778 1424947265 942.9152
1779 1424951171 944.1727
1780 1424955078 943.1690
1781 1424958984 942.4615
1782 1424962890 939.7457
1783 1424966796 939.2706
1784 1424970703 943.7009
1785 1424974609 941.6572
1786 1424978515 941.5412
1787 1424982421 943.0707
1788 1424986328 941.6696
1789 1424990234 942.1913
1790 1424994140 944.4286
1791 1424998046 941.8557
1792 1425001953 949.0114
1793 1425005859 987.8239
1794 1425009765 988.1857
1795 1425013671 948.1110
1796 1425017578 946.3971
1797 1425021484 944.7346
1798 1425025390 948.4515
1799 1425029296 947.6920
1800 1425033203 950.1574
1801 1425037109 949.2642
1802 1425041015 953.5308
1803 1425044921 956.3593
1804 1425048828 954.6653
1805 1425052734 957.4657
1806 1425056640 961.1354
1807 1425060546 958.9403
1808 1425064453 966.4598
1809 1425068359 967.7669
1810 1425072265 968.1449
1811 1425076171 971.3479
1812 1425080078 977.5035
1813 1425083984 976.5919
1814 1425087890 974.3106
1815 1425091796 978.4827
1816 1425095703 981.2200
1817 1425099609 983.2466
1818 1425103515 987.3741
1819 1425107421 993.4119
1820 1425111328 994.0327
1821 1425115234 998.3161
1822 1425119140 1001.3754
1823 1425123046 1004.2457
1824 1425126953 1009.2902
1825 1425130859 1011.2983
1826 1425134765 1011.8710
1827 1425138671 1016.5997
1828 1425142578 1020.4017
1829 1425146484 1022.8548
1830 1425150390 1023.7183
1831 1425154296 1021.9153
1832 1425158203 1033.9714
1833 1425162109 1033.7406
1834 1425166015 1033.5198
1835 1425169921 1038.1329
1836 1425173828 1041.5746
1837 1425177734 1045.0790
1838 1425181640 1046.5792
1839 1425185546 1051.7618
1840 1425189453 1046.4395
1841 1425193359 1050.7245
1842 1425197265 1056.3364
1843 1425201171 1053.9927
1844 1425205078 1060.3042
1845 1425208984 1062.3726
1846 1425212890 1062.9865
1847 1425216796 1064.7426
1848 1425220703 1067.0137
1849 1425224609 1069.5591
1850 1425228515 1064.4182
1851 1425232421 1070.7423
1852 1425236328 1068.9192
1853 1425240234 1069.8734
1854 1425244140 1070.6697
1855 1425248046 1068.8721
1856 1425251953 1070.3542
1857 1425255859 1065.4761
1858 1425259765 1072.0544
1859 1425263671 1066.6493
1860 1425267578 1067.8401
1861 1425271484 1062.2931
1862 1425275390 1056.3169
1863 1425279296 1054.4196
1864 1425283203 1054.6866
1865 1425287109 1049.7993
1866 1425291015 1041.2715
1867 1425294921 1036.2043
1868 1425298828 1032.7167
1869 1425302734 1029.2296
1870 1425306640 1028.0437
1871 1425310546 1019.6639
1872 1425314453 1014.5576
1873 1425318359 1008.4565
1874 1425322265 1000.2471
1875 1425326171 995.0201
1876 1425330078 983.8394
1877 1425333984 976.4885
1878 1425337890 971.8872
1879 1425341796 964.0009
1880 1425345703 954.1730
1881 1425349609 945.8224
1882 1425353515 932.5377
1883 1425357421 923.8916
1884 1425361328 913.2493
1885 1425365234 901.6133
1886 1425369140 890.3198
1887 1425373046 877.7816
1888 1425376953 866.2776
1889 1425380859 853.7847
1890 1425384765 842.5143
1891 1425388671 827.1204
1892 1425392578 815.4303
1893 1425396484 803.9716
1894 1425400390 788.7581
1895 1425404296 777.1873
1896 1425408203 760.2463
1897 1425412109 748.1153
1898 1425416015 730.6562
1899 1425419921 716.4009
1900 1425423828 703.1627
1901 1425427734 691.1404
1902 1425431640 676.5280
1903 1425435546 659.9602
1904 1425439453 641.5723
1905 1425443359 625.4432
1906 1425447265 611.0288
1907 1425451171 593.8350
1908 1425455078 580.6390
1909 1425458984 563.5258
1910 1425462890 547.0838
1911 1425466796 533.8126
1912 1425470703 516.7551
1913 1425474609 501.2970
1914 1425478515 485.7432
1915 1425482421 471.7552
1916 1425486328 455.2498
1917 1425490234 441.1205
1918 1425494140 426.8362
1919 1425498046 410.1723
1920 1425501953 394.1328
1921 1425505859 380.5055
1922 1425509765 366.5266
1923 1425513671 351.9997
1924 1425517578 338.5776
1925 1425521484 325.0734
1926 1425525390 310.6017
1927 1425529296 297.8515
1928 1425533203 284.8846
1929 1425537109 272.2489
1930 1425541015 260.7621
1931 1425544921 247.5148
1932 1425548828 234.5895
1933 1425552734 223.5055
1934 1425556640 213.5820
1935 1425560546 202.2471
1936 1425564453 191.5820
1937 1425568359 181.1496
1938 1425572265 171.8609
1939 1425576171 162.5142
1940 1425580078 152.8888
1941 1425583984 144.0384
1942 1425587890 135.7906
1943 1425591796 127.6017
1944 1425595703 120.0367
1945 1425599609 111.9886
1946 1425603515 104.9003
1947 1425607421 98.1804
1948 1425611328 91.4000
1949 1425615234 85.3792
1950 1425619140 79.2034
1951 1425623046 73.3407
1952 1425626953 68.2713
1953 1425630859 63.0392
1954 1425634765 58.2447
1955 1425638671 53.6115
1956 1425642578 49.2775
1957 1425646484 45.3825
1958 1425650390 41.6323
1959 1425654296 38.1550
1960 1425658203 34.6715
1961 1425662109 31.6314
1962 1425666015 28.6119
1963 1425669921 25.9752
1964 1425673828 23.4493
1965 1425677734 21.0942
1966 1425681640 19.0132
1967 1425685546 17.0575
1968 1425689453 15.1499
1969 1425693359 13.5156
1970 1425697265 11.9986
1971 1425701171 10.5771
1972 1425705078 9.3053
1973 1425708984 8.2212
1974 1425712890 7.1340
1975 1425716796 6.1906
1976 1425720703 5.3351
1977 1425724609 4.5678
1978 1425728515 3.9112
1979 1425732421 3.3060
1980 1425736328 2.7837
1981 1425740234 2.3105
1982 1425744140 1.9078
1983 1425748046 1.5515
1984 1425751953 1.2464
1985 1425755859 0.9862
1986 1425759765 0.7680
1987 1425763671 0.5835
1988 1425767578 0.4363
1989 1425771484 0.3142
1990 1425775390 0.2193
1991 1425779296 0.1470
1992 1425783203 0.0944
1993 1425787109 0.0597
1994 1425791015 0.0395
1995 1425794921 0.0324
1996 1425798828 0.0362
1997 1425802734 0.0494
1998 1425806640 0.0697
1999 1425810546 0.0965
2000 1425814453 0.1280
2001 1425818359 0.1626
2002 1425822265 0.2005
2003 1425826171 0.2416
2004 1425830078 0.2818
2005 1425833984 0.3224
2006 1425837890 0.3630
2007 1425841796 0.4047
2008 1425845703 0.4431
2009 1425849609 0.4807
2010 1425853515 0.5170
2011 1425857421 0.5544
2012 1425861328 0.5833
2013 1425865234 0.6145
2014 1425869140 0.6426
2015 1425873046 0.6688
2016 1425876953 0.6929
2017 1425880859 0.7139
2018 1425884765 0.7305
2019 1425888671 0.7510
2020 1425892578 0.7686
2021 1425896484 0.7794
2022 1425900390 0.7945
2023 1425904296 0.8042
2024 1425908203 0.8137
2025 1425912109 0.8209
2026 1425916015 0.8275
2027 1425919921 0.8331
2028 1425923828 0.8375
2029 1425927734 0.8398
2030 1425931640 0.8424
2031 1425935546 0.8417
2032 1425939453 0.8429
2033 1425943359 0.8419
2034 1425947265 0.8474
2035 1425951171 0.8470
2036 1425955078 0.8466
2037 1425958984 0.8455
2038 1425962890 0.8433
2039 1425966796 0.8413
2040 1425970703 0.8426
2041 1425974609 0.8402
2042 1425978515 0.8415
2043 1425982421 0.8376
2044 1425986328 0.8423
2045 1425990234 0.8407
2046 1425994140 0.8425
2047 1425998046 0.8428
