# File: 20-11-28T181843.hot
# NOTEA     = RSP1A+GPIOLabs Pi #1 On Horn
# NOTEB     = Sdrplay 8 MHz Test
# OBSERVER  = Science Aficionado
# DEVICE    = SDRPlay RSP1A
# DATADIR   = ../data/
# SITE      = RSP1A+GPIOLabs Pi #1 On Horn
# CITY      = Green Bank
# REGION    = West Virginia
# COUNTRY   = US
# TELTYPE   = Bubble Wrap  Horn
# FRAME     = TOPO
# GAIN1     = 0.0
# GAIN2     = 12.0
# GAIN3     = 12.0
# GAIN4     = 0.0
# Count     = 360000
# CenterFreq= 1422000000.0
# Bandwidth = 8000000.0
# Duration  = 157.613979
# DeltaX    = 5859.375
# TSYS      = 200.0
# TRX       = 100.0
# TRMS      = 2.0
# TINT      = 1.0
# KPERC     = 100.0
# GAINFACT  = 1.0
# BUNIT     = Counts
# NCHAN     = 2048
# NSPEC     = 1
# NTIME     = 0
# NSAMPLES  = 0
# EPEAK     = 4.10875183718
# ERMS      = 0.995973393526
# EMJD      = 58568.808999981004 
# REFCHAN   = 1024.0
# REFSAMPL  = 256.0
# NAVE      = 600
# NMEDIAN   = 1024
# Fft_rate  = 5000
# UTC       = 2020-11-28 18:18:43.859583
# SECONDS   =       0.0000000000 
# LST       = 17:31:47.330
# AZ        = 180.0
# EL        = -40.0
# TELLON    = -79:50:22.920
# TELLAT    = +38:25:59.160
# RA        = 06:02:45.580
# DEC       = -88:26:52.700
# GALLON    = 301:13:20.40
# GALLAT    = -27:26:42.20
# ALT_SUN   = +27:50:14.6
# AZ_SUN    = +198:45:22.1
# ETAA      = 0.8
# ETAB      = 0.99
# POLANGLE  = 0.0
# TELSIZEAM = 1.0
# TELSIZEBM = 1.0
# AST_VERS  = 05.01
0000 1418001953 0.8414
0001 1418005859 0.8430
0002 1418009765 0.8445
0003 1418013671 0.8461
0004 1418017578 0.8450
0005 1418021484 0.8491
0006 1418025390 0.8513
0007 1418029296 0.8548
0008 1418033203 0.8575
0009 1418037109 0.8600
0010 1418041015 0.8601
0011 1418044921 0.8666
0012 1418048828 0.8687
0013 1418052734 0.8699
0014 1418056640 0.8699
0015 1418060546 0.8736
0016 1418064453 0.8721
0017 1418068359 0.8750
0018 1418072265 0.8715
0019 1418076171 0.8693
0020 1418080078 0.8665
0021 1418083984 0.8631
0022 1418087890 0.8607
0023 1418091796 0.8527
0024 1418095703 0.8498
0025 1418099609 0.8408
0026 1418103515 0.8292
0027 1418107421 0.8144
0028 1418111328 0.8049
0029 1418115234 0.7865
0030 1418119140 0.7670
0031 1418123046 0.7482
0032 1418126953 0.7281
0033 1418130859 0.7009
0034 1418134765 0.6762
0035 1418138671 0.6466
0036 1418142578 0.6163
0037 1418146484 0.5794
0038 1418150390 0.5454
0039 1418154296 0.5050
0040 1418158203 0.4638
0041 1418162109 0.4248
0042 1418166015 0.3808
0043 1418169921 0.3391
0044 1418173828 0.2953
0045 1418177734 0.2519
0046 1418181640 0.2096
0047 1418185546 0.1709
0048 1418189453 0.1329
0049 1418193359 0.0999
0050 1418197265 0.0723
0051 1418201171 0.0507
0052 1418205078 0.0369
0053 1418208984 0.0329
0054 1418212890 0.0403
0055 1418216796 0.0615
0056 1418220703 0.0989
0057 1418224609 0.1542
0058 1418228515 0.2302
0059 1418232421 0.3321
0060 1418236328 0.4609
0061 1418240234 0.6164
0062 1418244140 0.8076
0063 1418248046 1.0430
0064 1418251953 1.3163
0065 1418255859 1.6349
0066 1418259765 2.0095
0067 1418263671 2.4366
0068 1418267578 2.9202
0069 1418271484 3.4859
0070 1418275390 4.1336
0071 1418279296 4.8402
0072 1418283203 5.6529
0073 1418287109 6.5682
0074 1418291015 7.5410
0075 1418294921 8.6730
0076 1418298828 9.8752
0077 1418302734 11.1675
0078 1418306640 12.7264
0079 1418310546 14.3261
0080 1418314453 16.0699
0081 1418318359 17.9782
0082 1418322265 20.0712
0083 1418326171 22.4140
0084 1418330078 24.8090
0085 1418333984 27.5429
0086 1418337890 30.4600
0087 1418341796 33.4710
0088 1418345703 36.6690
0089 1418349609 40.1890
0090 1418353515 43.9577
0091 1418357421 47.9071
0092 1418361328 52.0876
0093 1418365234 56.6980
0094 1418369140 61.8348
0095 1418373046 66.8310
0096 1418376953 72.3787
0097 1418380859 77.9587
0098 1418384765 83.8286
0099 1418388671 90.3219
0100 1418392578 97.2571
0101 1418396484 103.7848
0102 1418400390 111.1273
0103 1418404296 118.7131
0104 1418408203 126.7796
0105 1418412109 134.6177
0106 1418416015 143.6632
0107 1418419921 153.0727
0108 1418423828 162.5693
0109 1418427734 171.8575
0110 1418431640 181.9227
0111 1418435546 192.2169
0112 1418439453 203.4655
0113 1418443359 214.6604
0114 1418447265 225.7270
0115 1418451171 236.9930
0116 1418455078 248.6170
0117 1418458984 261.3564
0118 1418462890 274.0885
0119 1418466796 288.3637
0120 1418470703 301.6595
0121 1418474609 316.0367
0122 1418478515 328.8096
0123 1418482421 343.5818
0124 1418486328 358.0117
0125 1418490234 373.1903
0126 1418494140 386.9268
0127 1418498046 402.0844
0128 1418501953 419.9825
0129 1418505859 435.6186
0130 1418509765 450.5950
0131 1418513671 466.7604
0132 1418517578 482.3754
0133 1418521484 498.6068
0134 1418525390 514.9174
0135 1418529296 531.9363
0136 1418533203 548.5117
0137 1418537109 564.8829
0138 1418541015 579.5351
0139 1418544921 597.3047
0140 1418548828 614.3539
0141 1418552734 632.0767
0142 1418556640 649.3370
0143 1418560546 664.5220
0144 1418564453 676.7878
0145 1418568359 696.9672
0146 1418572265 711.2773
0147 1418576171 730.9156
0148 1418580078 748.3195
0149 1418583984 761.7388
0150 1418587890 778.2175
0151 1418591796 789.9509
0152 1418595703 806.0605
0153 1418599609 821.9022
0154 1418603515 834.9070
0155 1418607421 855.2626
0156 1418611328 867.4630
0157 1418615234 882.1239
0158 1418619140 892.9510
0159 1418623046 905.4793
0160 1418626953 922.2693
0161 1418630859 932.4114
0162 1418634765 945.0037
0163 1418638671 954.5003
0164 1418642578 969.0683
0165 1418646484 977.9692
0166 1418650390 989.1336
0167 1418654296 996.5287
0168 1418658203 1005.8215
0169 1418662109 1014.1920
0170 1418666015 1026.6259
0171 1418669921 1037.7335
0172 1418673828 1046.6171
0173 1418677734 1053.2173
0174 1418681640 1061.8184
0175 1418685546 1068.5829
0176 1418689453 1074.3495
0177 1418693359 1082.2601
0178 1418697265 1088.4911
0179 1418701171 1094.6246
0180 1418705078 1100.5067
0181 1418708984 1103.5511
0182 1418712890 1112.5153
0183 1418716796 1111.2965
0184 1418720703 1112.3025
0185 1418724609 1115.2146
0186 1418728515 1123.2565
0187 1418732421 1123.9070
0188 1418736328 1123.9613
0189 1418740234 1128.6880
0190 1418744140 1133.0886
0191 1418748046 1132.3356
0192 1418751953 1132.6545
0193 1418755859 1135.6089
0194 1418759765 1133.9066
0195 1418763671 1135.2694
0196 1418767578 1134.6063
0197 1418771484 1127.8491
0198 1418775390 1132.1753
0199 1418779296 1134.7507
0200 1418783203 1125.8384
0201 1418787109 1132.0779
0202 1418791015 1131.7976
0203 1418794921 1125.0945
0204 1418798828 1123.0865
0205 1418802734 1120.0304
0206 1418806640 1117.7863
0207 1418810546 1111.9216
0208 1418814453 1114.5244
0209 1418818359 1116.6998
0210 1418822265 1111.4556
0211 1418826171 1112.8535
0212 1418830078 1108.9596
0213 1418833984 1105.3087
0214 1418837890 1097.4193
0215 1418841796 1099.0681
0216 1418845703 1093.9438
0217 1418849609 1089.5092
0218 1418853515 1090.0271
0219 1418857421 1084.0350
0220 1418861328 1078.3396
0221 1418865234 1079.0626
0222 1418869140 1070.7793
0223 1418873046 1068.5599
0224 1418876953 1069.1180
0225 1418880859 1064.5265
0226 1418884765 1061.6815
0227 1418888671 1058.8389
0228 1418892578 1051.7994
0229 1418896484 1051.2419
0230 1418900390 1046.8347
0231 1418904296 1049.2854
0232 1418908203 1044.5259
0233 1418912109 1036.1901
0234 1418916015 1039.1648
0235 1418919921 1039.8057
0236 1418923828 1031.8335
0237 1418927734 1025.4088
0238 1418931640 1022.5745
0239 1418935546 1021.6844
0240 1418939453 1020.2665
0241 1418943359 1018.3314
0242 1418947265 1018.5534
0243 1418951171 1014.1118
0244 1418955078 1013.5341
0245 1418958984 1016.6091
0246 1418962890 1011.6303
0247 1418966796 1008.5803
0248 1418970703 1007.1448
0249 1418974609 1002.3527
0250 1418978515 1005.1058
0251 1418982421 1003.4122
0252 1418986328 1003.6312
0253 1418990234 1003.9761
0254 1418994140 1000.8746
0255 1418998046 996.8790
0256 1419001953 1002.7770
0257 1419005859 999.5345
0258 1419009765 997.7766
0259 1419013671 997.5764
0260 1419017578 993.8754
0261 1419021484 999.7999
0262 1419025390 995.0828
0263 1419029296 992.8781
0264 1419033203 994.8868
0265 1419037109 995.4978
0266 1419041015 998.2125
0267 1419044921 996.3126
0268 1419048828 996.4886
0269 1419052734 996.5396
0270 1419056640 996.4651
0271 1419060546 996.3384
0272 1419064453 1000.4828
0273 1419068359 998.1088
0274 1419072265 997.5596
0275 1419076171 1001.2737
0276 1419080078 1004.7004
0277 1419083984 1000.3496
0278 1419087890 1004.5999
0279 1419091796 1007.1536
0280 1419095703 1006.2795
0281 1419099609 1010.2317
0282 1419103515 1007.3412
0283 1419107421 1003.1736
0284 1419111328 1012.5001
0285 1419115234 1014.5554
0286 1419119140 1010.7441
0287 1419123046 1015.5106
0288 1419126953 1015.8311
0289 1419130859 1016.6339
0290 1419134765 1014.6792
0291 1419138671 1017.4498
0292 1419142578 1020.2201
0293 1419146484 1022.3204
0294 1419150390 1024.7382
0295 1419154296 1026.8229
0296 1419158203 1027.1057
0297 1419162109 1024.2374
0298 1419166015 1029.6030
0299 1419169921 1028.4883
0300 1419173828 1033.7891
0301 1419177734 1034.1949
0302 1419181640 1033.5306
0303 1419185546 1036.9645
0304 1419189453 1039.6949
0305 1419193359 1039.9764
0306 1419197265 1037.7928
0307 1419201171 1043.7457
0308 1419205078 1044.2250
0309 1419208984 1043.3685
0310 1419212890 1041.3821
0311 1419216796 1044.4355
0312 1419220703 1047.9668
0313 1419224609 1045.5811
0314 1419228515 1050.5820
0315 1419232421 1050.5564
0316 1419236328 1047.8442
0317 1419240234 1054.1910
0318 1419244140 1054.5977
0319 1419248046 1052.9619
0320 1419251953 1052.5825
0321 1419255859 1058.4073
0322 1419259765 1053.6572
0323 1419263671 1056.3563
0324 1419267578 1060.0789
0325 1419271484 1058.6967
0326 1419275390 1057.2070
0327 1419279296 1060.9846
0328 1419283203 1059.0214
0329 1419287109 1060.9415
0330 1419291015 1064.1777
0331 1419294921 1063.9370
0332 1419298828 1062.7727
0333 1419302734 1064.7775
0334 1419306640 1063.7573
0335 1419310546 1064.1897
0336 1419314453 1068.6150
0337 1419318359 1071.4675
0338 1419322265 1066.0283
0339 1419326171 1069.1992
0340 1419330078 1067.7998
0341 1419333984 1067.5475
0342 1419337890 1068.7791
0343 1419341796 1071.2732
0344 1419345703 1073.8597
0345 1419349609 1072.5356
0346 1419353515 1073.0044
0347 1419357421 1071.3003
0348 1419361328 1070.3801
0349 1419365234 1073.9503
0350 1419369140 1077.9977
0351 1419373046 1074.2789
0352 1419376953 1077.2166
0353 1419380859 1075.1398
0354 1419384765 1067.8735
0355 1419388671 1073.3596
0356 1419392578 1073.2769
0357 1419396484 1072.4576
0358 1419400390 1073.9788
0359 1419404296 1072.0068
0360 1419408203 1074.0143
0361 1419412109 1073.4916
0362 1419416015 1074.5597
0363 1419419921 1072.9777
0364 1419423828 1072.6815
0365 1419427734 1075.3302
0366 1419431640 1071.6191
0367 1419435546 1074.0092
0368 1419439453 1072.4872
0369 1419443359 1075.8744
0370 1419447265 1074.7159
0371 1419451171 1072.8375
0372 1419455078 1077.7791
0373 1419458984 1075.6112
0374 1419462890 1080.2476
0375 1419466796 1073.0995
0376 1419470703 1077.9143
0377 1419474609 1078.0613
0378 1419478515 1076.1447
0379 1419482421 1078.8815
0380 1419486328 1075.4949
0381 1419490234 1075.2036
0382 1419494140 1073.8085
0383 1419498046 1079.3806
0384 1419501953 1080.9519
0385 1419505859 1073.5168
0386 1419509765 1078.5123
0387 1419513671 1078.2040
0388 1419517578 1078.5607
0389 1419521484 1076.8029
0390 1419525390 1074.4117
0391 1419529296 1075.5812
0392 1419533203 1078.2264
0393 1419537109 1077.7336
0394 1419541015 1076.7026
0395 1419544921 1078.5172
0396 1419548828 1076.9673
0397 1419552734 1076.2626
0398 1419556640 1078.0520
0399 1419560546 1077.0436
0400 1419564453 1075.1925
0401 1419568359 1078.6694
0402 1419572265 1078.7318
0403 1419576171 1076.2334
0404 1419580078 1079.1841
0405 1419583984 1077.0631
0406 1419587890 1076.2434
0407 1419591796 1082.4740
0408 1419595703 1082.0040
0409 1419599609 1082.9939
0410 1419603515 1078.5924
0411 1419607421 1080.1693
0412 1419611328 1078.1794
0413 1419615234 1079.6691
0414 1419619140 1077.9438
0415 1419623046 1081.6753
0416 1419626953 1079.4838
0417 1419630859 1076.6318
0418 1419634765 1073.2344
0419 1419638671 1073.2766
0420 1419642578 1072.8820
0421 1419646484 1073.6414
0422 1419650390 1072.7660
0423 1419654296 1077.3191
0424 1419658203 1077.3519
0425 1419662109 1074.5364
0426 1419666015 1074.1085
0427 1419669921 1074.3302
0428 1419673828 1071.4976
0429 1419677734 1073.1458
0430 1419681640 1071.3232
0431 1419685546 1071.5104
0432 1419689453 1067.8914
0433 1419693359 1071.7061
0434 1419697265 1064.5338
0435 1419701171 1069.7360
0436 1419705078 1065.8547
0437 1419708984 1066.5283
0438 1419712890 1066.5554
0439 1419716796 1062.7003
0440 1419720703 1061.7275
0441 1419724609 1062.2699
0442 1419728515 1062.9332
0443 1419732421 1060.9855
0444 1419736328 1060.7817
0445 1419740234 1059.9719
0446 1419744140 1054.1556
0447 1419748046 1058.2070
0448 1419751953 1052.6694
0449 1419755859 1054.0261
0450 1419759765 1054.9401
0451 1419763671 1057.8485
0452 1419767578 1053.8312
0453 1419771484 1051.6094
0454 1419775390 1052.8066
0455 1419779296 1053.3165
0456 1419783203 1047.7975
0457 1419787109 1048.4723
0458 1419791015 1049.4146
0459 1419794921 1045.5531
0460 1419798828 1043.9417
0461 1419802734 1040.5427
0462 1419806640 1043.8661
0463 1419810546 1042.2227
0464 1419814453 1042.6676
0465 1419818359 1041.9099
0466 1419822265 1039.5526
0467 1419826171 1039.3597
0468 1419830078 1038.3362
0469 1419833984 1039.4504
0470 1419837890 1037.9735
0471 1419841796 1036.3047
0472 1419845703 1033.9017
0473 1419849609 1030.1110
0474 1419853515 1031.7897
0475 1419857421 1030.3301
0476 1419861328 1034.2986
0477 1419865234 1030.4866
0478 1419869140 1029.0890
0479 1419873046 1025.4669
0480 1419876953 1025.1396
0481 1419880859 1026.6414
0482 1419884765 1024.9852
0483 1419888671 1023.8753
0484 1419892578 1023.7219
0485 1419896484 1027.1957
0486 1419900390 1023.5131
0487 1419904296 1022.5197
0488 1419908203 1021.7506
0489 1419912109 1019.7452
0490 1419916015 1022.5656
0491 1419919921 1023.3710
0492 1419923828 1023.8389
0493 1419927734 1018.7840
0494 1419931640 1023.1323
0495 1419935546 1021.5732
0496 1419939453 1020.0613
0497 1419943359 1020.7224
0498 1419947265 1019.6058
0499 1419951171 1022.5126
0500 1419955078 1015.8577
0501 1419958984 1021.1461
0502 1419962890 1018.4816
0503 1419966796 1016.2814
0504 1419970703 1019.3598
0505 1419974609 1018.3694
0506 1419978515 1016.0171
0507 1419982421 1013.7928
0508 1419986328 1020.5259
0509 1419990234 1020.2198
0510 1419994140 1016.2724
0511 1419998046 1018.8860
0512 1420001953 1020.4277
0513 1420005859 1019.7461
0514 1420009765 1018.0140
0515 1420013671 1012.8051
0516 1420017578 1019.3527
0517 1420021484 1017.9594
0518 1420025390 1016.0035
0519 1420029296 1016.2462
0520 1420033203 1014.9425
0521 1420037109 1018.6711
0522 1420041015 1014.4544
0523 1420044921 1018.0451
0524 1420048828 1019.6658
0525 1420052734 1018.0656
0526 1420056640 1021.3179
0527 1420060546 1018.9392
0528 1420064453 1019.2646
0529 1420068359 1021.3771
0530 1420072265 1020.5480
0531 1420076171 1014.9911
0532 1420080078 1017.5356
0533 1420083984 1018.7145
0534 1420087890 1019.3938
0535 1420091796 1019.2758
0536 1420095703 1018.7721
0537 1420099609 1018.2109
0538 1420103515 1020.3850
0539 1420107421 1018.3525
0540 1420111328 1019.2112
0541 1420115234 1021.3505
0542 1420119140 1020.4030
0543 1420123046 1021.2884
0544 1420126953 1016.5884
0545 1420130859 1021.8710
0546 1420134765 1024.3669
0547 1420138671 1013.8691
0548 1420142578 1020.3571
0549 1420146484 1021.7351
0550 1420150390 1020.5328
0551 1420154296 1019.0450
0552 1420158203 1015.5460
0553 1420162109 1020.3846
0554 1420166015 1015.2783
0555 1420169921 1020.7499
0556 1420173828 1018.1193
0557 1420177734 1020.3325
0558 1420181640 1016.8093
0559 1420185546 1016.4461
0560 1420189453 1017.4437
0561 1420193359 1021.6027
0562 1420197265 1015.8124
0563 1420201171 1017.5381
0564 1420205078 1013.8328
0565 1420208984 1015.3723
0566 1420212890 1015.6347
0567 1420216796 1017.1280
0568 1420220703 1015.6088
0569 1420224609 1017.5428
0570 1420228515 1015.4393
0571 1420232421 1014.2469
0572 1420236328 1011.1501
0573 1420240234 1007.5988
0574 1420244140 1012.5352
0575 1420248046 1010.5838
0576 1420251953 1014.6550
0577 1420255859 1009.2291
0578 1420259765 1010.4829
0579 1420263671 1009.7232
0580 1420267578 1009.8658
0581 1420271484 1008.6754
0582 1420275390 1004.9769
0583 1420279296 1006.0891
0584 1420283203 1009.9334
0585 1420287109 1006.8726
0586 1420291015 1002.7864
0587 1420294921 1005.7902
0588 1420298828 1005.9212
0589 1420302734 1007.0855
0590 1420306640 1002.7805
0591 1420310546 1000.3050
0592 1420314453 1001.3698
0593 1420318359 1002.1011
0594 1420322265 1000.2270
0595 1420326171 998.5294
0596 1420330078 1003.4307
0597 1420333984 1004.0850
0598 1420337890 1000.1392
0599 1420341796 1000.5895
0600 1420345703 996.9246
0601 1420349609 1000.8885
0602 1420353515 997.7049
0603 1420357421 1000.3086
0604 1420361328 996.3133
0605 1420365234 998.9491
0606 1420369140 995.8319
0607 1420373046 995.3503
0608 1420376953 997.2305
0609 1420380859 989.5645
0610 1420384765 994.4867
0611 1420388671 989.2474
0612 1420392578 994.3380
0613 1420396484 990.1432
0614 1420400390 989.3737
0615 1420404296 987.5326
0616 1420408203 988.1660
0617 1420412109 992.8423
0618 1420416015 987.5024
0619 1420419921 987.7335
0620 1420423828 989.5898
0621 1420427734 985.0110
0622 1420431640 986.6475
0623 1420435546 985.0416
0624 1420439453 983.4542
0625 1420443359 983.1838
0626 1420447265 983.4750
0627 1420451171 984.4416
0628 1420455078 986.4844
0629 1420458984 982.7474
0630 1420462890 979.9958
0631 1420466796 980.7755
0632 1420470703 980.6816
0633 1420474609 981.6730
0634 1420478515 984.1541
0635 1420482421 984.1764
0636 1420486328 984.4166
0637 1420490234 982.7535
0638 1420494140 981.4590
0639 1420498046 983.9645
0640 1420501953 978.8800
0641 1420505859 979.6616
0642 1420509765 981.4298
0643 1420513671 983.6758
0644 1420517578 983.3093
0645 1420521484 983.5253
0646 1420525390 984.5158
0647 1420529296 986.1109
0648 1420533203 981.3165
0649 1420537109 981.7990
0650 1420541015 985.6376
0651 1420544921 986.4944
0652 1420548828 989.3936
0653 1420552734 983.9441
0654 1420556640 984.4590
0655 1420560546 982.5519
0656 1420564453 980.5689
0657 1420568359 987.2357
0658 1420572265 986.6268
0659 1420576171 985.1118
0660 1420580078 982.1918
0661 1420583984 986.4611
0662 1420587890 982.6475
0663 1420591796 981.1924
0664 1420595703 983.3557
0665 1420599609 984.6345
0666 1420603515 981.8091
0667 1420607421 983.5122
0668 1420611328 985.5806
0669 1420615234 985.8152
0670 1420619140 979.4146
0671 1420623046 981.9378
0672 1420626953 983.8033
0673 1420630859 985.5005
0674 1420634765 988.1654
0675 1420638671 983.4250
0676 1420642578 985.6650
0677 1420646484 983.1323
0678 1420650390 985.1125
0679 1420654296 983.3458
0680 1420658203 982.0231
0681 1420662109 981.2513
0682 1420666015 981.3135
0683 1420669921 979.9702
0684 1420673828 982.7984
0685 1420677734 982.0490
0686 1420681640 980.5472
0687 1420685546 981.4055
0688 1420689453 980.5783
0689 1420693359 982.0802
0690 1420697265 981.5306
0691 1420701171 978.1473
0692 1420705078 977.1144
0693 1420708984 983.0009
0694 1420712890 981.8487
0695 1420716796 981.0795
0696 1420720703 977.2681
0697 1420724609 975.4831
0698 1420728515 974.6771
0699 1420732421 977.8635
0700 1420736328 975.7779
0701 1420740234 974.5185
0702 1420744140 971.7290
0703 1420748046 975.7022
0704 1420751953 974.5740
0705 1420755859 975.3001
0706 1420759765 976.5712
0707 1420763671 970.1638
0708 1420767578 970.3740
0709 1420771484 972.4489
0710 1420775390 970.8950
0711 1420779296 970.4500
0712 1420783203 972.6932
0713 1420787109 970.5074
0714 1420791015 968.0442
0715 1420794921 967.6978
0716 1420798828 967.4870
0717 1420802734 969.6789
0718 1420806640 966.1479
0719 1420810546 964.9977
0720 1420814453 964.4644
0721 1420818359 966.2360
0722 1420822265 963.1330
0723 1420826171 965.7416
0724 1420830078 961.7631
0725 1420833984 966.0251
0726 1420837890 964.4837
0727 1420841796 961.9013
0728 1420845703 965.7628
0729 1420849609 961.8474
0730 1420853515 963.9704
0731 1420857421 958.7812
0732 1420861328 963.6143
0733 1420865234 964.8745
0734 1420869140 962.4587
0735 1420873046 963.3771
0736 1420876953 962.1945
0737 1420880859 963.4954
0738 1420884765 959.9451
0739 1420888671 965.4865
0740 1420892578 963.2561
0741 1420896484 966.2014
0742 1420900390 965.6311
0743 1420904296 962.7235
0744 1420908203 961.6069
0745 1420912109 965.5229
0746 1420916015 966.6208
0747 1420919921 962.3890
0748 1420923828 964.9939
0749 1420927734 960.6903
0750 1420931640 967.3839
0751 1420935546 967.1447
0752 1420939453 967.4832
0753 1420943359 969.4910
0754 1420947265 969.0545
0755 1420951171 971.3284
0756 1420955078 966.9547
0757 1420958984 969.7410
0758 1420962890 968.4158
0759 1420966796 970.9530
0760 1420970703 973.4070
0761 1420974609 971.4158
0762 1420978515 977.7004
0763 1420982421 976.1620
0764 1420986328 974.8409
0765 1420990234 975.0664
0766 1420994140 979.0192
0767 1420998046 977.4356
0768 1421001953 979.3632
0769 1421005859 978.7823
0770 1421009765 980.3621
0771 1421013671 981.6474
0772 1421017578 980.2073
0773 1421021484 984.8801
0774 1421025390 985.8074
0775 1421029296 983.3273
0776 1421033203 984.9487
0777 1421037109 985.8212
0778 1421041015 990.5359
0779 1421044921 983.4580
0780 1421048828 987.7397
0781 1421052734 993.0426
0782 1421056640 993.1539
0783 1421060546 993.4056
0784 1421064453 996.8783
0785 1421068359 996.3822
0786 1421072265 993.2463
0787 1421076171 996.0327
0788 1421080078 1000.1392
0789 1421083984 998.8257
0790 1421087890 1002.3367
0791 1421091796 997.7716
0792 1421095703 1001.6328
0793 1421099609 1005.2567
0794 1421103515 1003.5521
0795 1421107421 1007.0682
0796 1421111328 1009.1622
0797 1421115234 1004.6586
0798 1421119140 1007.1503
0799 1421123046 1007.3343
0800 1421126953 1012.7797
0801 1421130859 1008.5737
0802 1421134765 1008.4979
0803 1421138671 1010.2643
0804 1421142578 1007.1511
0805 1421146484 1008.0837
0806 1421150390 1006.6754
0807 1421154296 1007.4730
0808 1421158203 1012.6918
0809 1421162109 1011.6760
0810 1421166015 1011.4575
0811 1421169921 1014.0415
0812 1421173828 1011.2469
0813 1421177734 1011.1203
0814 1421181640 1007.3284
0815 1421185546 1012.6618
0816 1421189453 1014.1385
0817 1421193359 1013.2875
0818 1421197265 1014.2047
0819 1421201171 1014.8605
0820 1421205078 1014.1060
0821 1421208984 1009.5511
0822 1421212890 1012.6664
0823 1421216796 1009.9783
0824 1421220703 1012.9012
0825 1421224609 1008.3572
0826 1421228515 1007.9858
0827 1421232421 1011.2164
0828 1421236328 1010.3689
0829 1421240234 1009.1378
0830 1421244140 1007.4421
0831 1421248046 1004.8765
0832 1421251953 1009.4586
0833 1421255859 1011.0640
0834 1421259765 1006.9407
0835 1421263671 1009.1452
0836 1421267578 1007.4274
0837 1421271484 1004.0147
0838 1421275390 1005.1969
0839 1421279296 1000.8880
0840 1421283203 1001.5219
0841 1421287109 996.8745
0842 1421291015 998.2612
0843 1421294921 995.4368
0844 1421298828 998.1381
0845 1421302734 994.9573
0846 1421306640 996.9453
0847 1421310546 992.2544
0848 1421314453 989.9634
0849 1421318359 991.5488
0850 1421322265 992.7632
0851 1421326171 988.7233
0852 1421330078 986.7683
0853 1421333984 987.3615
0854 1421337890 984.2870
0855 1421341796 988.1354
0856 1421345703 989.6093
0857 1421349609 983.7690
0858 1421353515 985.8073
0859 1421357421 985.2419
0860 1421361328 982.4853
0861 1421365234 980.7771
0862 1421369140 983.9569
0863 1421373046 979.0599
0864 1421376953 979.1786
0865 1421380859 979.8052
0866 1421384765 980.7509
0867 1421388671 980.0699
0868 1421392578 977.6878
0869 1421396484 978.0262
0870 1421400390 979.2490
0871 1421404296 977.9597
0872 1421408203 976.7001
0873 1421412109 974.5905
0874 1421416015 973.4941
0875 1421419921 971.2324
0876 1421423828 973.4471
0877 1421427734 971.3840
0878 1421431640 970.9962
0879 1421435546 974.4270
0880 1421439453 976.1886
0881 1421443359 976.1277
0882 1421447265 974.9432
0883 1421451171 975.7235
0884 1421455078 976.0729
0885 1421458984 972.5164
0886 1421462890 972.9503
0887 1421466796 977.2192
0888 1421470703 976.2349
0889 1421474609 977.1332
0890 1421478515 974.5396
0891 1421482421 973.9775
0892 1421486328 979.1174
0893 1421490234 976.1011
0894 1421494140 980.8499
0895 1421498046 975.0770
0896 1421501953 982.2189
0897 1421505859 980.6709
0898 1421509765 981.2616
0899 1421513671 984.0203
0900 1421517578 981.6281
0901 1421521484 984.0566
0902 1421525390 989.8015
0903 1421529296 986.5712
0904 1421533203 988.2592
0905 1421537109 987.9558
0906 1421541015 989.7955
0907 1421544921 991.5419
0908 1421548828 995.0491
0909 1421552734 991.2764
0910 1421556640 998.1705
0911 1421560546 994.8928
0912 1421564453 994.9706
0913 1421568359 996.0703
0914 1421572265 997.5048
0915 1421576171 1001.3930
0916 1421580078 1003.0645
0917 1421583984 1001.8402
0918 1421587890 1002.0304
0919 1421591796 1004.2726
0920 1421595703 1005.4095
0921 1421599609 1010.0825
0922 1421603515 1011.8855
0923 1421607421 1013.4236
0924 1421611328 1010.4444
0925 1421615234 1011.4096
0926 1421619140 1017.1343
0927 1421623046 1012.8811
0928 1421626953 1013.5095
0929 1421630859 1020.0128
0930 1421634765 1021.6422
0931 1421638671 1022.0394
0932 1421642578 1023.1349
0933 1421646484 1018.9359
0934 1421650390 1020.6306
0935 1421654296 1022.4193
0936 1421658203 1029.5414
0937 1421662109 1025.6885
0938 1421666015 1023.7891
0939 1421669921 1027.6444
0940 1421673828 1027.4640
0941 1421677734 1029.6292
0942 1421681640 1030.0370
0943 1421685546 1028.5021
0944 1421689453 1031.8390
0945 1421693359 1032.0089
0946 1421697265 1028.5907
0947 1421701171 1030.7814
0948 1421705078 1030.4489
0949 1421708984 1028.5139
0950 1421712890 1031.8927
0951 1421716796 1031.4496
0952 1421720703 1032.1027
0953 1421724609 1030.5083
0954 1421728515 1032.0188
0955 1421732421 1035.7432
0956 1421736328 1030.8546
0957 1421740234 1030.0664
0958 1421744140 1029.1256
0959 1421748046 1033.0529
0960 1421751953 1033.7458
0961 1421755859 1031.7404
0962 1421759765 1034.6151
0963 1421763671 1030.8019
0964 1421767578 1028.4010
0965 1421771484 1028.0525
0966 1421775390 1028.8763
0967 1421779296 1027.8228
0968 1421783203 1026.1779
0969 1421787109 1024.9818
0970 1421791015 1026.8778
0971 1421794921 1026.5049
0972 1421798828 1023.2026
0973 1421802734 1021.9288
0974 1421806640 1021.8087
0975 1421810546 1019.3245
0976 1421814453 1021.6388
0977 1421818359 1017.1970
0978 1421822265 1018.2250
0979 1421826171 1020.5029
0980 1421830078 1014.4181
0981 1421833984 1015.4364
0982 1421837890 1012.7436
0983 1421841796 1012.1008
0984 1421845703 1009.9153
0985 1421849609 1007.5332
0986 1421853515 1008.3336
0987 1421857421 1004.8040
0988 1421861328 1004.5040
0989 1421865234 1005.9922
0990 1421869140 1005.4710
0991 1421873046 1001.9210
0992 1421876953 1001.7441
0993 1421880859 999.3535
0994 1421884765 995.4629
0995 1421888671 995.2008
0996 1421892578 996.8643
0997 1421896484 996.5596
0998 1421900390 993.8694
0999 1421904296 989.8777
1000 1421908203 987.9091
1001 1421912109 988.2353
1002 1421916015 985.3312
1003 1421919921 989.7051
1004 1421923828 986.1098
1005 1421927734 983.4031
1006 1421931640 983.9943
1007 1421935546 983.8042
1008 1421939453 984.3395
1009 1421943359 980.5836
1010 1421947265 980.6159
1011 1421951171 978.9008
1012 1421955078 977.2737
1013 1421958984 981.8489
1014 1421962890 977.3152
1015 1421966796 978.1345
1016 1421970703 977.9819
1017 1421974609 980.5747
1018 1421978515 978.6012
1019 1421982421 977.5152
1020 1421986328 980.0759
1021 1421990234 980.7302
1022 1421994140 986.1423
1023 1421998046 1015.3833
1024 1422001953 1095.2664
1025 1422005859 1011.9440
1026 1422009765 982.5161
1027 1422013671 981.5135
1028 1422017578 975.4186
1029 1422021484 977.0795
1030 1422025390 979.7341
1031 1422029296 980.5859
1032 1422033203 978.0936
1033 1422037109 979.3754
1034 1422041015 976.5677
1035 1422044921 976.0223
1036 1422048828 978.3052
1037 1422052734 978.9270
1038 1422056640 977.3404
1039 1422060546 981.7542
1040 1422064453 980.9302
1041 1422068359 978.7054
1042 1422072265 982.9341
1043 1422076171 981.8491
1044 1422080078 981.0383
1045 1422083984 982.4488
1046 1422087890 984.0654
1047 1422091796 984.3920
1048 1422095703 983.3548
1049 1422099609 986.2452
1050 1422103515 985.8664
1051 1422107421 985.6830
1052 1422111328 989.1895
1053 1422115234 992.2589
1054 1422119140 994.1906
1055 1422123046 994.1926
1056 1422126953 993.9606
1057 1422130859 991.0922
1058 1422134765 997.6729
1059 1422138671 1001.5922
1060 1422142578 998.8559
1061 1422146484 1000.5161
1062 1422150390 1003.4783
1063 1422154296 1004.3376
1064 1422158203 1001.9143
1065 1422162109 1005.1606
1066 1422166015 1007.9354
1067 1422169921 1002.0703
1068 1422173828 1002.4032
1069 1422177734 1011.5087
1070 1422181640 1009.0520
1071 1422185546 1013.7943
1072 1422189453 1009.4656
1073 1422193359 1012.7222
1074 1422197265 1011.6813
1075 1422201171 1013.7175
1076 1422205078 1015.9788
1077 1422208984 1014.9286
1078 1422212890 1016.5484
1079 1422216796 1016.2919
1080 1422220703 1018.8549
1081 1422224609 1019.0251
1082 1422228515 1018.4126
1083 1422232421 1019.2510
1084 1422236328 1023.9268
1085 1422240234 1022.9671
1086 1422244140 1020.6112
1087 1422248046 1024.5444
1088 1422251953 1021.0779
1089 1422255859 1022.9546
1090 1422259765 1023.4896
1091 1422263671 1022.5076
1092 1422267578 1023.2903
1093 1422271484 1022.8947
1094 1422275390 1024.1140
1095 1422279296 1020.9996
1096 1422283203 1022.2151
1097 1422287109 1021.5706
1098 1422291015 1017.8922
1099 1422294921 1022.8788
1100 1422298828 1018.8658
1101 1422302734 1020.4056
1102 1422306640 1021.9288
1103 1422310546 1022.6622
1104 1422314453 1020.4848
1105 1422318359 1021.6711
1106 1422322265 1015.0374
1107 1422326171 1014.5217
1108 1422330078 1016.1638
1109 1422333984 1018.3967
1110 1422337890 1015.4156
1111 1422341796 1013.3590
1112 1422345703 1010.8094
1113 1422349609 1010.4423
1114 1422353515 1008.5854
1115 1422357421 1007.3902
1116 1422361328 1006.1916
1117 1422365234 1015.1697
1118 1422369140 1007.2959
1119 1422373046 1003.6673
1120 1422376953 1006.6730
1121 1422380859 1004.2269
1122 1422384765 1000.6172
1123 1422388671 1000.3698
1124 1422392578 1000.1678
1125 1422396484 996.6891
1126 1422400390 996.5799
1127 1422404296 996.6263
1128 1422408203 994.7061
1129 1422412109 993.5247
1130 1422416015 991.2718
1131 1422419921 989.3599
1132 1422423828 988.6896
1133 1422427734 988.6049
1134 1422431640 984.6537
1135 1422435546 982.7729
1136 1422439453 984.5445
1137 1422443359 981.5499
1138 1422447265 980.5194
1139 1422451171 981.4878
1140 1422455078 980.2586
1141 1422458984 975.2021
1142 1422462890 975.5467
1143 1422466796 976.6759
1144 1422470703 974.3677
1145 1422474609 973.5393
1146 1422478515 970.6091
1147 1422482421 970.2123
1148 1422486328 970.3276
1149 1422490234 965.5358
1150 1422494140 967.2628
1151 1422498046 965.9252
1152 1422501953 967.5842
1153 1422505859 966.8527
1154 1422509765 965.2601
1155 1422513671 962.8329
1156 1422517578 961.1651
1157 1422521484 958.6853
1158 1422525390 964.1868
1159 1422529296 961.8369
1160 1422533203 960.2333
1161 1422537109 958.9364
1162 1422541015 960.0012
1163 1422544921 956.1486
1164 1422548828 959.3290
1165 1422552734 961.8115
1166 1422556640 961.5189
1167 1422560546 957.0988
1168 1422564453 961.7803
1169 1422568359 960.4275
1170 1422572265 959.9658
1171 1422576171 960.9606
1172 1422580078 957.8212
1173 1422583984 958.8867
1174 1422587890 960.4103
1175 1422591796 956.4199
1176 1422595703 959.0724
1177 1422599609 961.8943
1178 1422603515 960.8884
1179 1422607421 961.3190
1180 1422611328 961.2554
1181 1422615234 965.3727
1182 1422619140 961.9296
1183 1422623046 965.7203
1184 1422626953 963.0699
1185 1422630859 964.9848
1186 1422634765 963.1075
1187 1422638671 968.2233
1188 1422642578 969.6302
1189 1422646484 964.2367
1190 1422650390 971.4901
1191 1422654296 974.3567
1192 1422658203 971.7961
1193 1422662109 971.1481
1194 1422666015 971.6902
1195 1422669921 971.4503
1196 1422673828 971.5972
1197 1422677734 975.9763
1198 1422681640 975.4567
1199 1422685546 978.8151
1200 1422689453 978.2856
1201 1422693359 978.6842
1202 1422697265 979.9560
1203 1422701171 977.4380
1204 1422705078 981.1862
1205 1422708984 983.9593
1206 1422712890 985.4775
1207 1422716796 984.3779
1208 1422720703 986.8374
1209 1422724609 985.0080
1210 1422728515 986.3353
1211 1422732421 991.1680
1212 1422736328 984.8832
1213 1422740234 992.1993
1214 1422744140 988.6926
1215 1422748046 991.3463
1216 1422751953 986.5693
1217 1422755859 993.5749
1218 1422759765 988.6929
1219 1422763671 990.5828
1220 1422767578 993.9548
1221 1422771484 994.3976
1222 1422775390 993.0059
1223 1422779296 994.9919
1224 1422783203 994.6335
1225 1422787109 993.5846
1226 1422791015 993.9758
1227 1422794921 996.5026
1228 1422798828 993.9601
1229 1422802734 997.1280
1230 1422806640 998.0249
1231 1422810546 999.9272
1232 1422814453 996.0588
1233 1422818359 996.9083
1234 1422822265 994.1506
1235 1422826171 995.7448
1236 1422830078 996.9970
1237 1422833984 995.1896
1238 1422837890 995.8777
1239 1422841796 1000.3469
1240 1422845703 997.9984
1241 1422849609 999.1933
1242 1422853515 993.8672
1243 1422857421 996.1030
1244 1422861328 995.5077
1245 1422865234 995.2736
1246 1422869140 993.5214
1247 1422873046 991.9344
1248 1422876953 990.9064
1249 1422880859 986.8072
1250 1422884765 988.6899
1251 1422888671 990.4811
1252 1422892578 988.7565
1253 1422896484 987.3474
1254 1422900390 987.1831
1255 1422904296 983.1279
1256 1422908203 984.6599
1257 1422912109 987.6209
1258 1422916015 983.3982
1259 1422919921 985.8624
1260 1422923828 984.7951
1261 1422927734 979.4666
1262 1422931640 983.5868
1263 1422935546 979.8373
1264 1422939453 977.6898
1265 1422943359 979.8900
1266 1422947265 978.3744
1267 1422951171 977.1422
1268 1422955078 975.7114
1269 1422958984 973.4991
1270 1422962890 969.1583
1271 1422966796 966.8498
1272 1422970703 970.0088
1273 1422974609 972.0270
1274 1422978515 966.3842
1275 1422982421 969.7398
1276 1422986328 967.9432
1277 1422990234 966.2746
1278 1422994140 965.4825
1279 1422998046 961.8659
1280 1423001953 965.0511
1281 1423005859 961.2913
1282 1423009765 958.9773
1283 1423013671 962.0712
1284 1423017578 958.1599
1285 1423021484 958.5925
1286 1423025390 953.8385
1287 1423029296 956.0563
1288 1423033203 952.5743
1289 1423037109 957.2194
1290 1423041015 954.3755
1291 1423044921 952.5453
1292 1423048828 951.1174
1293 1423052734 951.1502
1294 1423056640 948.3699
1295 1423060546 951.8347
1296 1423064453 948.8360
1297 1423068359 950.4937
1298 1423072265 952.2614
1299 1423076171 947.1362
1300 1423080078 946.6085
1301 1423083984 945.9697
1302 1423087890 945.4576
1303 1423091796 945.7090
1304 1423095703 945.8192
1305 1423099609 945.8514
1306 1423103515 942.4601
1307 1423107421 942.3739
1308 1423111328 947.3248
1309 1423115234 943.5829
1310 1423119140 940.3235
1311 1423123046 946.5984
1312 1423126953 945.6702
1313 1423130859 943.2887
1314 1423134765 942.9759
1315 1423138671 945.5059
1316 1423142578 947.9309
1317 1423146484 949.3336
1318 1423150390 943.5944
1319 1423154296 945.9130
1320 1423158203 949.8994
1321 1423162109 944.7766
1322 1423166015 946.3506
1323 1423169921 946.3430
1324 1423173828 947.2239
1325 1423177734 945.4149
1326 1423181640 947.3920
1327 1423185546 946.4493
1328 1423189453 946.4033
1329 1423193359 946.5740
1330 1423197265 945.0960
1331 1423201171 947.3266
1332 1423205078 948.2147
1333 1423208984 951.2879
1334 1423212890 945.7123
1335 1423216796 948.0011
1336 1423220703 945.4134
1337 1423224609 946.2006
1338 1423228515 949.6384
1339 1423232421 950.0944
1340 1423236328 949.1578
1341 1423240234 951.5394
1342 1423244140 953.7834
1343 1423248046 951.8965
1344 1423251953 951.6029
1345 1423255859 949.6696
1346 1423259765 949.7474
1347 1423263671 958.9887
1348 1423267578 956.6345
1349 1423271484 952.8762
1350 1423275390 951.8630
1351 1423279296 959.7692
1352 1423283203 956.0066
1353 1423287109 956.5790
1354 1423291015 953.9307
1355 1423294921 954.0942
1356 1423298828 959.0339
1357 1423302734 959.6350
1358 1423306640 957.7867
1359 1423310546 959.8814
1360 1423314453 956.9258
1361 1423318359 958.0209
1362 1423322265 960.7015
1363 1423326171 958.6910
1364 1423330078 958.7598
1365 1423333984 960.0656
1366 1423337890 958.2416
1367 1423341796 962.3244
1368 1423345703 963.0704
1369 1423349609 961.0169
1370 1423353515 958.0704
1371 1423357421 959.9097
1372 1423361328 960.4684
1373 1423365234 961.9076
1374 1423369140 965.4438
1375 1423373046 963.6689
1376 1423376953 960.5512
1377 1423380859 961.1560
1378 1423384765 960.5344
1379 1423388671 957.0126
1380 1423392578 960.5355
1381 1423396484 963.3668
1382 1423400390 960.7789
1383 1423404296 959.7635
1384 1423408203 960.7842
1385 1423412109 960.1826
1386 1423416015 957.2779
1387 1423419921 957.5861
1388 1423423828 958.8374
1389 1423427734 962.3973
1390 1423431640 959.2679
1391 1423435546 961.6868
1392 1423439453 958.6119
1393 1423443359 957.3338
1394 1423447265 962.8344
1395 1423451171 962.7145
1396 1423455078 958.2834
1397 1423458984 957.6447
1398 1423462890 961.0115
1399 1423466796 959.6404
1400 1423470703 959.8453
1401 1423474609 959.9498
1402 1423478515 963.1141
1403 1423482421 962.4700
1404 1423486328 957.3193
1405 1423490234 956.5037
1406 1423494140 956.8879
1407 1423498046 957.0377
1408 1423501953 960.7942
1409 1423505859 956.8156
1410 1423509765 957.8793
1411 1423513671 952.2390
1412 1423517578 954.6365
1413 1423521484 957.6566
1414 1423525390 954.8178
1415 1423529296 954.2363
1416 1423533203 953.7585
1417 1423537109 955.3806
1418 1423541015 958.3989
1419 1423544921 956.0493
1420 1423548828 959.1188
1421 1423552734 953.5391
1422 1423556640 953.5212
1423 1423560546 957.6856
1424 1423564453 958.7036
1425 1423568359 958.4727
1426 1423572265 955.7939
1427 1423576171 958.7533
1428 1423580078 958.5898
1429 1423583984 960.7166
1430 1423587890 962.0474
1431 1423591796 958.6779
1432 1423595703 957.5212
1433 1423599609 955.8340
1434 1423603515 960.6899
1435 1423607421 965.0906
1436 1423611328 959.7962
1437 1423615234 958.2127
1438 1423619140 956.3759
1439 1423623046 961.7309
1440 1423626953 961.7034
1441 1423630859 962.6130
1442 1423634765 961.4914
1443 1423638671 962.6396
1444 1423642578 961.8160
1445 1423646484 960.2303
1446 1423650390 963.9520
1447 1423654296 963.3530
1448 1423658203 965.7827
1449 1423662109 968.3713
1450 1423666015 968.9247
1451 1423669921 969.0191
1452 1423673828 965.6346
1453 1423677734 965.9109
1454 1423681640 969.7967
1455 1423685546 968.7153
1456 1423689453 969.6475
1457 1423693359 968.8519
1458 1423697265 967.4475
1459 1423701171 968.8138
1460 1423705078 971.2186
1461 1423708984 973.6966
1462 1423712890 969.0718
1463 1423716796 970.4381
1464 1423720703 970.6995
1465 1423724609 973.8149
1466 1423728515 975.7572
1467 1423732421 974.6694
1468 1423736328 973.6487
1469 1423740234 975.3983
1470 1423744140 980.6578
1471 1423748046 977.0425
1472 1423751953 978.7520
1473 1423755859 978.9298
1474 1423759765 974.0011
1475 1423763671 976.7570
1476 1423767578 976.4674
1477 1423771484 981.0565
1478 1423775390 978.6074
1479 1423779296 981.2375
1480 1423783203 980.5480
1481 1423787109 979.8318
1482 1423791015 982.3190
1483 1423794921 979.9686
1484 1423798828 976.6242
1485 1423802734 983.5780
1486 1423806640 981.3101
1487 1423810546 981.7083
1488 1423814453 984.5902
1489 1423818359 985.6572
1490 1423822265 982.8554
1491 1423826171 984.0879
1492 1423830078 984.9492
1493 1423833984 987.6603
1494 1423837890 984.2182
1495 1423841796 983.9811
1496 1423845703 988.9037
1497 1423849609 984.1299
1498 1423853515 987.7896
1499 1423857421 987.8865
1500 1423861328 988.3351
1501 1423865234 987.2200
1502 1423869140 987.0627
1503 1423873046 985.8547
1504 1423876953 983.9918
1505 1423880859 989.0910
1506 1423884765 984.6317
1507 1423888671 984.8022
1508 1423892578 988.2796
1509 1423896484 988.2974
1510 1423900390 984.5287
1511 1423904296 984.0362
1512 1423908203 983.8024
1513 1423912109 984.2765
1514 1423916015 982.4019
1515 1423919921 983.8399
1516 1423923828 981.6005
1517 1423927734 985.0166
1518 1423931640 979.0986
1519 1423935546 984.6596
1520 1423939453 982.9453
1521 1423943359 982.3888
1522 1423947265 984.4509
1523 1423951171 981.1298
1524 1423955078 981.7037
1525 1423958984 982.1165
1526 1423962890 986.5744
1527 1423966796 982.2511
1528 1423970703 978.8779
1529 1423974609 981.2326
1530 1423978515 979.5652
1531 1423982421 980.8833
1532 1423986328 980.8845
1533 1423990234 980.5857
1534 1423994140 982.5293
1535 1423998046 981.4645
1536 1424001953 991.3782
1537 1424005859 985.5578
1538 1424009765 981.1182
1539 1424013671 979.7279
1540 1424017578 980.2701
1541 1424021484 979.1834
1542 1424025390 981.0102
1543 1424029296 980.6315
1544 1424033203 976.6898
1545 1424037109 973.7258
1546 1424041015 980.8696
1547 1424044921 981.7646
1548 1424048828 982.2092
1549 1424052734 984.4031
1550 1424056640 983.0483
1551 1424060546 979.8115
1552 1424064453 979.0879
1553 1424068359 977.0626
1554 1424072265 982.2658
1555 1424076171 981.1822
1556 1424080078 981.6661
1557 1424083984 982.4281
1558 1424087890 981.7867
1559 1424091796 983.3809
1560 1424095703 986.2637
1561 1424099609 984.5032
1562 1424103515 982.2358
1563 1424107421 987.5023
1564 1424111328 984.4273
1565 1424115234 986.7590
1566 1424119140 987.3752
1567 1424123046 988.1092
1568 1424126953 988.0138
1569 1424130859 985.5019
1570 1424134765 988.7007
1571 1424138671 990.4760
1572 1424142578 989.6333
1573 1424146484 991.3206
1574 1424150390 989.4971
1575 1424154296 992.1555
1576 1424158203 991.8141
1577 1424162109 991.5642
1578 1424166015 994.6593
1579 1424169921 997.1260
1580 1424173828 999.6586
1581 1424177734 994.1478
1582 1424181640 992.9633
1583 1424185546 994.5294
1584 1424189453 999.7490
1585 1424193359 998.6380
1586 1424197265 1001.8998
1587 1424201171 999.2896
1588 1424205078 1001.2817
1589 1424208984 1000.7853
1590 1424212890 1005.1475
1591 1424216796 1007.9252
1592 1424220703 1007.5227
1593 1424224609 1004.6801
1594 1424228515 1005.1307
1595 1424232421 1007.0945
1596 1424236328 1008.5908
1597 1424240234 1010.3162
1598 1424244140 1013.4145
1599 1424248046 1010.2371
1600 1424251953 1009.4929
1601 1424255859 1010.3350
1602 1424259765 1007.9581
1603 1424263671 1012.3698
1604 1424267578 1011.7944
1605 1424271484 1012.8115
1606 1424275390 1016.8373
1607 1424279296 1017.8510
1608 1424283203 1017.4761
1609 1424287109 1014.4384
1610 1424291015 1016.0582
1611 1424294921 1018.4550
1612 1424298828 1017.1454
1613 1424302734 1016.8580
1614 1424306640 1020.0475
1615 1424310546 1021.1735
1616 1424314453 1019.4421
1617 1424318359 1019.7306
1618 1424322265 1022.0391
1619 1424326171 1026.3575
1620 1424330078 1023.7683
1621 1424333984 1024.3124
1622 1424337890 1021.2227
1623 1424341796 1025.8127
1624 1424345703 1025.0918
1625 1424349609 1030.4917
1626 1424353515 1026.9111
1627 1424357421 1024.0814
1628 1424361328 1024.6113
1629 1424365234 1028.5278
1630 1424369140 1027.9012
1631 1424373046 1026.1769
1632 1424376953 1025.7522
1633 1424380859 1027.5519
1634 1424384765 1029.0999
1635 1424388671 1025.7983
1636 1424392578 1027.1910
1637 1424396484 1031.0928
1638 1424400390 1026.5139
1639 1424404296 1026.6621
1640 1424408203 1026.8718
1641 1424412109 1026.5000
1642 1424416015 1027.5886
1643 1424419921 1026.8070
1644 1424423828 1024.3258
1645 1424427734 1027.4788
1646 1424431640 1027.3500
1647 1424435546 1025.8546
1648 1424439453 1029.1855
1649 1424443359 1029.1476
1650 1424447265 1024.6564
1651 1424451171 1028.9480
1652 1424455078 1029.4471
1653 1424458984 1028.9127
1654 1424462890 1025.8943
1655 1424466796 1023.1697
1656 1424470703 1028.0526
1657 1424474609 1025.6024
1658 1424478515 1029.3572
1659 1424482421 1029.8926
1660 1424486328 1027.4683
1661 1424490234 1020.5908
1662 1424494140 1023.8408
1663 1424498046 1022.0575
1664 1424501953 1026.5857
1665 1424505859 1024.2153
1666 1424509765 1022.2026
1667 1424513671 1024.2295
1668 1424517578 1020.6429
1669 1424521484 1025.6185
1670 1424525390 1024.7396
1671 1424529296 1026.4661
1672 1424533203 1026.9653
1673 1424537109 1023.1404
1674 1424541015 1021.0909
1675 1424544921 1024.5398
1676 1424548828 1018.9426
1677 1424552734 1025.4520
1678 1424556640 1026.7438
1679 1424560546 1019.8377
1680 1424564453 1021.4749
1681 1424568359 1024.2429
1682 1424572265 1025.1641
1683 1424576171 1025.8740
1684 1424580078 1024.3121
1685 1424583984 1022.8106
1686 1424587890 1017.1466
1687 1424591796 1016.4465
1688 1424595703 1021.7350
1689 1424599609 1020.8239
1690 1424603515 1021.4835
1691 1424607421 1019.2656
1692 1424611328 1019.6780
1693 1424615234 1021.6929
1694 1424619140 1018.1960
1695 1424623046 1017.9775
1696 1424626953 1016.0534
1697 1424630859 1017.9029
1698 1424634765 1020.6960
1699 1424638671 1017.8708
1700 1424642578 1017.4345
1701 1424646484 1020.6531
1702 1424650390 1020.4822
1703 1424654296 1013.7112
1704 1424658203 1013.3765
1705 1424662109 1014.8398
1706 1424666015 1012.8260
1707 1424669921 1017.7462
1708 1424673828 1015.1920
1709 1424677734 1014.8134
1710 1424681640 1015.7835
1711 1424685546 1013.9945
1712 1424689453 1009.8475
1713 1424693359 1010.5951
1714 1424697265 1011.3534
1715 1424701171 1007.2828
1716 1424705078 1007.8156
1717 1424708984 1010.7957
1718 1424712890 1007.0330
1719 1424716796 1006.7877
1720 1424720703 1007.1188
1721 1424724609 1003.0159
1722 1424728515 1003.1736
1723 1424732421 1004.3083
1724 1424736328 1003.6141
1725 1424740234 1004.3856
1726 1424744140 1004.8870
1727 1424748046 999.4512
1728 1424751953 997.6954
1729 1424755859 998.3080
1730 1424759765 998.0262
1731 1424763671 998.4902
1732 1424767578 996.3780
1733 1424771484 992.7821
1734 1424775390 991.6911
1735 1424779296 993.9130
1736 1424783203 987.7916
1737 1424787109 989.2872
1738 1424791015 988.4758
1739 1424794921 989.0994
1740 1424798828 985.0555
1741 1424802734 985.5089
1742 1424806640 982.8289
1743 1424810546 983.1636
1744 1424814453 981.5073
1745 1424818359 978.4196
1746 1424822265 977.8455
1747 1424826171 977.4730
1748 1424830078 977.2634
1749 1424833984 970.2249
1750 1424837890 968.6268
1751 1424841796 970.2457
1752 1424845703 969.5848
1753 1424849609 967.7744
1754 1424853515 965.4375
1755 1424857421 961.8317
1756 1424861328 964.5814
1757 1424865234 962.6896
1758 1424869140 963.8467
1759 1424873046 964.8895
1760 1424876953 958.1236
1761 1424880859 953.9526
1762 1424884765 954.9479
1763 1424888671 954.9109
1764 1424892578 952.2797
1765 1424896484 954.1212
1766 1424900390 949.2314
1767 1424904296 948.5522
1768 1424908203 949.9346
1769 1424912109 946.4662
1770 1424916015 945.5474
1771 1424919921 945.1369
1772 1424923828 943.1425
1773 1424927734 942.5026
1774 1424931640 941.9538
1775 1424935546 944.1330
1776 1424939453 944.1490
1777 1424943359 942.5234
1778 1424947265 939.9592
1779 1424951171 941.5222
1780 1424955078 939.8926
1781 1424958984 936.0137
1782 1424962890 937.5262
1783 1424966796 939.2817
1784 1424970703 936.3266
1785 1424974609 941.7238
1786 1424978515 942.7768
1787 1424982421 937.8542
1788 1424986328 942.3864
1789 1424990234 941.2387
1790 1424994140 939.4128
1791 1424998046 940.0022
1792 1425001953 944.4122
1793 1425005859 987.7217
1794 1425009765 986.5728
1795 1425013671 943.8854
1796 1425017578 945.9526
1797 1425021484 943.2085
1798 1425025390 945.3803
1799 1425029296 943.3650
1800 1425033203 944.1472
1801 1425037109 951.4218
1802 1425041015 946.7043
1803 1425044921 949.7566
1804 1425048828 952.7620
1805 1425052734 953.2978
1806 1425056640 954.1721
1807 1425060546 957.7219
1808 1425064453 962.9302
1809 1425068359 964.3041
1810 1425072265 964.8999
1811 1425076171 969.7825
1812 1425080078 969.0222
1813 1425083984 972.8274
1814 1425087890 970.9362
1815 1425091796 974.5839
1816 1425095703 980.0228
1817 1425099609 984.9293
1818 1425103515 983.6558
1819 1425107421 987.9323
1820 1425111328 990.9587
1821 1425115234 993.1873
1822 1425119140 996.6976
1823 1425123046 998.1315
1824 1425126953 1002.4544
1825 1425130859 1002.7887
1826 1425134765 1009.2564
1827 1425138671 1014.5250
1828 1425142578 1020.4214
1829 1425146484 1022.1409
1830 1425150390 1022.3903
1831 1425154296 1031.4994
1832 1425158203 1031.6218
1833 1425162109 1029.4147
1834 1425166015 1033.8264
1835 1425169921 1034.9137
1836 1425173828 1039.3708
1837 1425177734 1039.9550
1838 1425181640 1043.9290
1839 1425185546 1047.4709
1840 1425189453 1050.1042
1841 1425193359 1051.1108
1842 1425197265 1056.8748
1843 1425201171 1056.4866
1844 1425205078 1059.8202
1845 1425208984 1060.2781
1846 1425212890 1062.8954
1847 1425216796 1063.9641
1848 1425220703 1065.6392
1849 1425224609 1063.7069
1850 1425228515 1065.3488
1851 1425232421 1062.8770
1852 1425236328 1065.7712
1853 1425240234 1065.5375
1854 1425244140 1063.5071
1855 1425248046 1062.9098
1856 1425251953 1064.8607
1857 1425255859 1056.7910
1858 1425259765 1063.0236
1859 1425263671 1060.0361
1860 1425267578 1064.7694
1861 1425271484 1063.6416
1862 1425275390 1056.9673
1863 1425279296 1054.0465
1864 1425283203 1045.5696
1865 1425287109 1047.1207
1866 1425291015 1043.9521
1867 1425294921 1037.5647
1868 1425298828 1033.6866
1869 1425302734 1027.0557
1870 1425306640 1020.3940
1871 1425310546 1016.9215
1872 1425314453 1010.8054
1873 1425318359 1009.9764
1874 1425322265 1000.6085
1875 1425326171 991.4556
1876 1425330078 983.2128
1877 1425333984 977.3076
1878 1425337890 969.3521
1879 1425341796 960.7269
1880 1425345703 951.7930
1881 1425349609 941.1480
1882 1425353515 931.5257
1883 1425357421 919.4322
1884 1425361328 911.4782
1885 1425365234 901.3889
1886 1425369140 892.3058
1887 1425373046 882.4623
1888 1425376953 868.0542
1889 1425380859 854.2296
1890 1425384765 845.9773
1891 1425388671 828.5128
1892 1425392578 815.0282
1893 1425396484 800.3712
1894 1425400390 788.9598
1895 1425404296 775.2164
1896 1425408203 761.9095
1897 1425412109 746.2003
1898 1425416015 733.4531
1899 1425419921 714.4664
1900 1425423828 701.6395
1901 1425427734 687.5926
1902 1425431640 671.0905
1903 1425435546 655.4923
1904 1425439453 640.0645
1905 1425443359 625.7719
1906 1425447265 609.6859
1907 1425451171 593.7126
1908 1425455078 578.1573
1909 1425458984 563.1793
1910 1425462890 547.3986
1911 1425466796 533.5576
1912 1425470703 519.3101
1913 1425474609 501.2644
1914 1425478515 485.2833
1915 1425482421 471.1023
1916 1425486328 453.4104
1917 1425490234 439.1363
1918 1425494140 421.7846
1919 1425498046 407.2225
1920 1425501953 393.8098
1921 1425505859 378.6004
1922 1425509765 364.8026
1923 1425513671 351.3096
1924 1425517578 337.2717
1925 1425521484 324.2398
1926 1425525390 310.7168
1927 1425529296 297.2443
1928 1425533203 285.1761
1929 1425537109 270.7364
1930 1425541015 259.3832
1931 1425544921 247.3595
1932 1425548828 235.7483
1933 1425552734 223.5836
1934 1425556640 213.0237
1935 1425560546 202.0149
1936 1425564453 191.7049
1937 1425568359 181.3192
1938 1425572265 170.7660
1939 1425576171 161.5749
1940 1425580078 152.7961
1941 1425583984 143.5211
1942 1425587890 135.1297
1943 1425591796 127.0744
1944 1425595703 119.4716
1945 1425599609 111.8568
1946 1425603515 104.8308
1947 1425607421 98.3087
1948 1425611328 91.5298
1949 1425615234 84.7442
1950 1425619140 78.9950
1951 1425623046 73.4869
1952 1425626953 68.2014
1953 1425630859 63.0734
1954 1425634765 58.0129
1955 1425638671 53.4030
1956 1425642578 49.1060
1957 1425646484 45.3833
1958 1425650390 41.6102
1959 1425654296 37.9442
1960 1425658203 34.6191
1961 1425662109 31.4739
1962 1425666015 28.7068
1963 1425669921 25.9886
1964 1425673828 23.5210
1965 1425677734 21.2080
1966 1425681640 18.9973
1967 1425685546 17.0631
1968 1425689453 15.2559
1969 1425693359 13.4904
1970 1425697265 11.9944
1971 1425701171 10.5857
1972 1425705078 9.3068
1973 1425708984 8.1912
1974 1425712890 7.1354
1975 1425716796 6.1982
1976 1425720703 5.3321
1977 1425724609 4.5703
1978 1425728515 3.9088
1979 1425732421 3.3046
1980 1425736328 2.7716
1981 1425740234 2.3021
1982 1425744140 1.9022
1983 1425748046 1.5452
1984 1425751953 1.2424
1985 1425755859 0.9832
1986 1425759765 0.7672
1987 1425763671 0.5845
1988 1425767578 0.4332
1989 1425771484 0.3138
1990 1425775390 0.2192
1991 1425779296 0.1469
1992 1425783203 0.0944
1993 1425787109 0.0593
1994 1425791015 0.0395
1995 1425794921 0.0325
1996 1425798828 0.0361
1997 1425802734 0.0491
1998 1425806640 0.0697
1999 1425810546 0.0964
2000 1425814453 0.1275
2001 1425818359 0.1623
2002 1425822265 0.2001
2003 1425826171 0.2398
2004 1425830078 0.2811
2005 1425833984 0.3217
2006 1425837890 0.3632
2007 1425841796 0.4036
2008 1425845703 0.4425
2009 1425849609 0.4827
2010 1425853515 0.5168
2011 1425857421 0.5510
2012 1425861328 0.5845
2013 1425865234 0.6122
2014 1425869140 0.6413
2015 1425873046 0.6683
2016 1425876953 0.6923
2017 1425880859 0.7129
2018 1425884765 0.7347
2019 1425888671 0.7483
2020 1425892578 0.7678
2021 1425896484 0.7813
2022 1425900390 0.7907
2023 1425904296 0.7991
2024 1425908203 0.8136
2025 1425912109 0.8202
2026 1425916015 0.8239
2027 1425919921 0.8291
2028 1425923828 0.8339
2029 1425927734 0.8378
2030 1425931640 0.8385
2031 1425935546 0.8422
2032 1425939453 0.8426
2033 1425943359 0.8452
2034 1425947265 0.8480
2035 1425951171 0.8448
2036 1425955078 0.8443
2037 1425958984 0.8444
2038 1425962890 0.8439
2039 1425966796 0.8427
2040 1425970703 0.8426
2041 1425974609 0.8380
2042 1425978515 0.8391
2043 1425982421 0.8373
2044 1425986328 0.8405
2045 1425990234 0.8385
2046 1425994140 0.8396
2047 1425998046 0.8421
