# File: 20-11-28T185525.hot
# NOTEA     = RSP1A+GPIOLabs Pi #1 On Horn
# NOTEB     = Sdrplay 8 MHz Test
# OBSERVER  = Science Aficionado
# DEVICE    = SDRPlay RSP1A
# DATADIR   = ../data/
# SITE      = RSP1A+GPIOLabs Pi #1 On Horn
# CITY      = Green Bank
# REGION    = West Virginia
# COUNTRY   = US
# TELTYPE   = Bubble Wrap  Horn
# FRAME     = TOPO
# GAIN1     = 0.0
# GAIN2     = 12.0
# GAIN3     = 12.0
# GAIN4     = 0.0
# Count     = 360000
# CenterFreq= 1422000000.0
# Bandwidth = 8000000.0
# Duration  = 156.78323
# DeltaX    = 5859.375
# TSYS      = 200.0
# TRX       = 100.0
# TRMS      = 2.0
# TINT      = 1.0
# KPERC     = 100.0
# GAINFACT  = 1.0
# BUNIT     = Counts
# NCHAN     = 2048
# NSPEC     = 1
# NTIME     = 0
# NSAMPLES  = 0
# EPEAK     = 4.10875183718
# ERMS      = 0.995973393526
# EMJD      = 58568.808999981004 
# REFCHAN   = 1024.0
# REFSAMPL  = 256.0
# NAVE      = 600
# NMEDIAN   = 1024
# Fft_rate  = 5000
# UTC       = 2020-11-28 18:55:25.957315
# SECONDS   =       0.0000000000 
# LST       = 18:08:35.460
# AZ        = 180.0
# EL        = -40.0
# TELLON    = -79:50:22.920
# TELLAT    = +38:25:59.160
# RA        = 06:39:06.540
# DEC       = -88:24:42.900
# GALLON    = 301:08:55.90
# GALLAT    = -27:12:08.60
# ALT_SUN   = +24:59:51.6
# AZ_SUN    = +207:44:34.9
# ETAA      = 0.8
# ETAB      = 0.99
# POLANGLE  = 0.0
# TELSIZEAM = 1.0
# TELSIZEBM = 1.0
# AST_VERS  = 05.01
0000 1418001953 0.8704
0001 1418005859 0.8754
0002 1418009765 0.8770
0003 1418013671 0.8771
0004 1418017578 0.8826
0005 1418021484 0.8850
0006 1418025390 0.8823
0007 1418029296 0.8852
0008 1418033203 0.8905
0009 1418037109 0.8913
0010 1418041015 0.8917
0011 1418044921 0.8977
0012 1418048828 0.8978
0013 1418052734 0.8954
0014 1418056640 0.9008
0015 1418060546 0.9043
0016 1418064453 0.9051
0017 1418068359 0.9035
0018 1418072265 0.9067
0019 1418076171 0.9024
0020 1418080078 0.9030
0021 1418083984 0.8967
0022 1418087890 0.8911
0023 1418091796 0.8855
0024 1418095703 0.8770
0025 1418099609 0.8678
0026 1418103515 0.8581
0027 1418107421 0.8489
0028 1418111328 0.8345
0029 1418115234 0.8193
0030 1418119140 0.7947
0031 1418123046 0.7778
0032 1418126953 0.7578
0033 1418130859 0.7288
0034 1418134765 0.7011
0035 1418138671 0.6681
0036 1418142578 0.6360
0037 1418146484 0.6032
0038 1418150390 0.5631
0039 1418154296 0.5260
0040 1418158203 0.4826
0041 1418162109 0.4401
0042 1418166015 0.3964
0043 1418169921 0.3504
0044 1418173828 0.3073
0045 1418177734 0.2618
0046 1418181640 0.2183
0047 1418185546 0.1776
0048 1418189453 0.1383
0049 1418193359 0.1035
0050 1418197265 0.0744
0051 1418201171 0.0519
0052 1418205078 0.0378
0053 1418208984 0.0338
0054 1418212890 0.0415
0055 1418216796 0.0633
0056 1418220703 0.1017
0057 1418224609 0.1600
0058 1418228515 0.2389
0059 1418232421 0.3448
0060 1418236328 0.4763
0061 1418240234 0.6379
0062 1418244140 0.8417
0063 1418248046 1.0834
0064 1418251953 1.3661
0065 1418255859 1.7007
0066 1418259765 2.0812
0067 1418263671 2.5270
0068 1418267578 3.0334
0069 1418271484 3.6226
0070 1418275390 4.2995
0071 1418279296 5.0408
0072 1418283203 5.8686
0073 1418287109 6.8282
0074 1418291015 7.8299
0075 1418294921 8.9806
0076 1418298828 10.2418
0077 1418302734 11.6908
0078 1418306640 13.1861
0079 1418310546 14.9000
0080 1418314453 16.6985
0081 1418318359 18.6671
0082 1418322265 20.9039
0083 1418326171 23.2746
0084 1418330078 25.7455
0085 1418333984 28.6520
0086 1418337890 31.6456
0087 1418341796 34.8130
0088 1418345703 38.1233
0089 1418349609 41.8000
0090 1418353515 45.7536
0091 1418357421 49.7691
0092 1418361328 54.4940
0093 1418365234 59.3120
0094 1418369140 64.1592
0095 1418373046 69.4155
0096 1418376953 74.8696
0097 1418380859 81.0504
0098 1418384765 87.6444
0099 1418388671 93.8265
0100 1418392578 100.4683
0101 1418396484 107.8853
0102 1418400390 115.8203
0103 1418404296 123.4534
0104 1418408203 132.2801
0105 1418412109 140.8022
0106 1418416015 150.3708
0107 1418419921 158.5414
0108 1418423828 168.5467
0109 1418427734 178.7509
0110 1418431640 189.3605
0111 1418435546 199.5085
0112 1418439453 211.4907
0113 1418443359 223.1088
0114 1418447265 234.6733
0115 1418451171 246.9318
0116 1418455078 260.9734
0117 1418458984 272.8817
0118 1418462890 285.7123
0119 1418466796 299.5638
0120 1418470703 315.0347
0121 1418474609 327.9938
0122 1418478515 342.0405
0123 1418482421 356.3260
0124 1418486328 372.6819
0125 1418490234 387.4435
0126 1418494140 404.2002
0127 1418498046 419.0750
0128 1418501953 434.8008
0129 1418505859 450.4042
0130 1418509765 467.6838
0131 1418513671 484.3392
0132 1418517578 503.8050
0133 1418521484 518.6661
0134 1418525390 537.0079
0135 1418529296 551.7798
0136 1418533203 569.2786
0137 1418537109 587.9344
0138 1418541015 607.2902
0139 1418544921 623.4619
0140 1418548828 638.1052
0141 1418552734 656.5585
0142 1418556640 675.7922
0143 1418560546 690.2018
0144 1418564453 708.1461
0145 1418568359 728.2692
0146 1418572265 741.5792
0147 1418576171 758.4261
0148 1418580078 776.6025
0149 1418583984 793.4056
0150 1418587890 808.6248
0151 1418591796 823.7495
0152 1418595703 841.3751
0153 1418599609 860.0629
0154 1418603515 873.1699
0155 1418607421 885.3871
0156 1418611328 896.3038
0157 1418615234 916.5467
0158 1418619140 931.4540
0159 1418623046 942.4382
0160 1418626953 957.5583
0161 1418630859 968.9820
0162 1418634765 982.6559
0163 1418638671 998.9606
0164 1418642578 1007.5530
0165 1418646484 1016.6058
0166 1418650390 1032.6385
0167 1418654296 1041.2377
0168 1418658203 1049.4736
0169 1418662109 1058.3303
0170 1418666015 1067.7040
0171 1418669921 1077.7509
0172 1418673828 1087.5970
0173 1418677734 1097.8805
0174 1418681640 1105.1477
0175 1418685546 1111.2957
0176 1418689453 1118.8792
0177 1418693359 1125.3623
0178 1418697265 1132.8408
0179 1418701171 1136.8721
0180 1418705078 1142.6709
0181 1418708984 1149.0985
0182 1418712890 1153.9829
0183 1418716796 1159.9850
0184 1418720703 1160.6603
0185 1418724609 1165.0878
0186 1418728515 1171.8478
0187 1418732421 1173.5510
0188 1418736328 1172.2008
0189 1418740234 1174.8785
0190 1418744140 1180.6736
0191 1418748046 1176.0559
0192 1418751953 1174.5985
0193 1418755859 1177.9832
0194 1418759765 1182.3162
0195 1418763671 1178.0378
0196 1418767578 1180.8944
0197 1418771484 1183.4941
0198 1418775390 1178.8713
0199 1418779296 1177.8840
0200 1418783203 1180.0131
0201 1418787109 1175.0829
0202 1418791015 1175.0261
0203 1418794921 1171.5663
0204 1418798828 1171.6089
0205 1418802734 1168.2909
0206 1418806640 1169.7329
0207 1418810546 1164.7959
0208 1418814453 1162.6925
0209 1418818359 1154.3845
0210 1418822265 1157.1852
0211 1418826171 1153.7961
0212 1418830078 1145.7180
0213 1418833984 1149.3210
0214 1418837890 1143.9166
0215 1418841796 1137.1611
0216 1418845703 1132.1992
0217 1418849609 1136.5925
0218 1418853515 1129.0671
0219 1418857421 1129.9661
0220 1418861328 1122.8512
0221 1418865234 1119.2620
0222 1418869140 1116.4714
0223 1418873046 1122.2808
0224 1418876953 1111.1630
0225 1418880859 1109.3760
0226 1418884765 1104.3330
0227 1418888671 1103.4977
0228 1418892578 1096.6694
0229 1418896484 1094.1259
0230 1418900390 1089.7202
0231 1418904296 1087.6887
0232 1418908203 1086.9507
0233 1418912109 1082.0026
0234 1418916015 1078.5156
0235 1418919921 1075.0095
0236 1418923828 1074.1019
0237 1418927734 1073.1357
0238 1418931640 1071.2747
0239 1418935546 1066.1755
0240 1418939453 1060.9082
0241 1418943359 1064.1127
0242 1418947265 1061.9734
0243 1418951171 1059.2815
0244 1418955078 1054.3754
0245 1418958984 1054.8234
0246 1418962890 1051.9423
0247 1418966796 1050.3762
0248 1418970703 1044.4542
0249 1418974609 1049.1980
0250 1418978515 1044.6002
0251 1418982421 1041.3243
0252 1418986328 1040.5587
0253 1418990234 1044.9421
0254 1418994140 1043.3687
0255 1418998046 1038.3501
0256 1419001953 1038.3436
0257 1419005859 1041.8756
0258 1419009765 1040.8467
0259 1419013671 1037.3029
0260 1419017578 1035.4449
0261 1419021484 1035.2202
0262 1419025390 1035.6084
0263 1419029296 1035.3901
0264 1419033203 1033.3352
0265 1419037109 1032.5303
0266 1419041015 1037.9117
0267 1419044921 1039.3589
0268 1419048828 1040.0720
0269 1419052734 1038.1184
0270 1419056640 1038.1404
0271 1419060546 1038.0674
0272 1419064453 1037.9159
0273 1419068359 1041.9432
0274 1419072265 1041.3728
0275 1419076171 1036.4523
0276 1419080078 1040.3861
0277 1419083984 1044.2415
0278 1419087890 1046.8414
0279 1419091796 1047.9152
0280 1419095703 1050.6818
0281 1419099609 1050.6704
0282 1419103515 1048.1694
0283 1419107421 1048.5947
0284 1419111328 1053.1844
0285 1419115234 1050.1207
0286 1419119140 1053.0101
0287 1419123046 1059.1378
0288 1419126953 1058.8290
0289 1419130859 1056.5104
0290 1419134765 1056.8348
0291 1419138671 1062.4905
0292 1419142578 1062.4011
0293 1419146484 1060.5330
0294 1419150390 1063.4532
0295 1419154296 1066.1858
0296 1419158203 1070.2294
0297 1419162109 1074.6522
0298 1419166015 1074.9188
0299 1419169921 1073.9031
0300 1419173828 1076.8491
0301 1419177734 1078.7648
0302 1419181640 1082.1770
0303 1419185546 1078.1688
0304 1419189453 1078.3391
0305 1419193359 1087.5332
0306 1419197265 1085.3641
0307 1419201171 1088.6412
0308 1419205078 1088.0352
0309 1419208984 1086.3362
0310 1419212890 1088.1113
0311 1419216796 1090.1450
0312 1419220703 1088.2245
0313 1419224609 1090.5183
0314 1419228515 1094.4348
0315 1419232421 1097.3217
0316 1419236328 1095.2793
0317 1419240234 1095.5217
0318 1419244140 1099.2726
0319 1419248046 1101.6177
0320 1419251953 1098.5608
0321 1419255859 1105.4901
0322 1419259765 1097.6160
0323 1419263671 1098.1608
0324 1419267578 1104.3101
0325 1419271484 1103.5059
0326 1419275390 1099.6838
0327 1419279296 1103.4445
0328 1419283203 1106.9766
0329 1419287109 1109.5344
0330 1419291015 1108.0952
0331 1419294921 1105.2197
0332 1419298828 1106.9032
0333 1419302734 1108.9308
0334 1419306640 1110.3866
0335 1419310546 1105.8435
0336 1419314453 1108.5106
0337 1419318359 1110.9198
0338 1419322265 1111.4021
0339 1419326171 1111.2795
0340 1419330078 1113.2169
0341 1419333984 1113.7623
0342 1419337890 1114.3340
0343 1419341796 1114.7867
0344 1419345703 1111.4144
0345 1419349609 1114.3528
0346 1419353515 1114.8760
0347 1419357421 1113.0808
0348 1419361328 1116.1677
0349 1419365234 1114.4291
0350 1419369140 1118.7556
0351 1419373046 1122.3173
0352 1419376953 1119.1876
0353 1419380859 1117.9507
0354 1419384765 1116.0225
0355 1419388671 1117.1953
0356 1419392578 1112.5746
0357 1419396484 1118.2904
0358 1419400390 1115.9153
0359 1419404296 1118.4387
0360 1419408203 1118.4043
0361 1419412109 1115.0977
0362 1419416015 1118.7988
0363 1419419921 1118.0525
0364 1419423828 1119.0522
0365 1419427734 1119.4382
0366 1419431640 1120.5157
0367 1419435546 1116.3480
0368 1419439453 1119.1841
0369 1419443359 1119.0431
0370 1419447265 1120.7253
0371 1419451171 1119.8291
0372 1419455078 1115.2257
0373 1419458984 1119.9755
0374 1419462890 1116.5634
0375 1419466796 1118.6293
0376 1419470703 1121.1851
0377 1419474609 1120.1703
0378 1419478515 1121.4916
0379 1419482421 1119.6074
0380 1419486328 1117.6278
0381 1419490234 1115.7112
0382 1419494140 1121.4653
0383 1419498046 1116.9855
0384 1419501953 1119.5753
0385 1419505859 1122.6519
0386 1419509765 1121.0967
0387 1419513671 1123.7870
0388 1419517578 1119.8058
0389 1419521484 1119.2539
0390 1419525390 1121.2136
0391 1419529296 1126.9432
0392 1419533203 1126.2361
0393 1419537109 1122.7338
0394 1419541015 1118.7061
0395 1419544921 1119.5740
0396 1419548828 1119.4539
0397 1419552734 1124.5021
0398 1419556640 1124.8326
0399 1419560546 1121.3201
0400 1419564453 1122.5991
0401 1419568359 1123.3668
0402 1419572265 1122.4668
0403 1419576171 1120.2488
0404 1419580078 1117.9357
0405 1419583984 1122.6952
0406 1419587890 1124.0580
0407 1419591796 1125.9358
0408 1419595703 1125.9895
0409 1419599609 1121.5947
0410 1419603515 1120.3722
0411 1419607421 1124.1783
0412 1419611328 1118.7872
0413 1419615234 1124.0679
0414 1419619140 1123.9526
0415 1419623046 1118.7987
0416 1419626953 1120.2373
0417 1419630859 1117.5573
0418 1419634765 1117.5569
0419 1419638671 1119.7029
0420 1419642578 1121.2654
0421 1419646484 1120.6451
0422 1419650390 1121.3085
0423 1419654296 1111.5825
0424 1419658203 1114.2095
0425 1419662109 1116.8750
0426 1419666015 1114.6633
0427 1419669921 1113.8693
0428 1419673828 1119.2672
0429 1419677734 1116.5350
0430 1419681640 1115.8473
0431 1419685546 1113.5123
0432 1419689453 1112.2167
0433 1419693359 1112.0038
0434 1419697265 1112.7096
0435 1419701171 1113.2474
0436 1419705078 1111.4919
0437 1419708984 1108.1561
0438 1419712890 1109.4540
0439 1419716796 1111.1918
0440 1419720703 1108.4968
0441 1419724609 1105.3013
0442 1419728515 1110.4116
0443 1419732421 1109.0762
0444 1419736328 1106.1730
0445 1419740234 1104.6562
0446 1419744140 1100.4824
0447 1419748046 1099.5557
0448 1419751953 1098.7291
0449 1419755859 1099.8835
0450 1419759765 1102.2256
0451 1419763671 1098.5316
0452 1419767578 1099.0327
0453 1419771484 1094.0503
0454 1419775390 1093.1210
0455 1419779296 1091.2396
0456 1419783203 1089.8163
0457 1419787109 1087.1451
0458 1419791015 1090.9556
0459 1419794921 1089.9082
0460 1419798828 1084.5155
0461 1419802734 1084.0199
0462 1419806640 1091.3096
0463 1419810546 1090.6584
0464 1419814453 1087.1295
0465 1419818359 1084.8831
0466 1419822265 1085.4727
0467 1419826171 1077.4969
0468 1419830078 1079.7487
0469 1419833984 1078.0654
0470 1419837890 1081.2467
0471 1419841796 1075.9241
0472 1419845703 1075.6731
0473 1419849609 1076.9839
0474 1419853515 1078.8826
0475 1419857421 1071.4353
0476 1419861328 1070.4330
0477 1419865234 1071.5800
0478 1419869140 1065.9425
0479 1419873046 1070.8998
0480 1419876953 1072.7637
0481 1419880859 1070.7855
0482 1419884765 1067.9418
0483 1419888671 1068.8838
0484 1419892578 1067.7693
0485 1419896484 1065.9216
0486 1419900390 1063.4884
0487 1419904296 1064.7339
0488 1419908203 1066.0439
0489 1419912109 1065.7389
0490 1419916015 1063.3296
0491 1419919921 1063.9648
0492 1419923828 1064.8214
0493 1419927734 1065.8051
0494 1419931640 1059.7637
0495 1419935546 1058.4829
0496 1419939453 1061.0244
0497 1419943359 1057.9569
0498 1419947265 1059.1208
0499 1419951171 1063.3868
0500 1419955078 1061.4807
0501 1419958984 1060.5688
0502 1419962890 1057.9163
0503 1419966796 1056.1870
0504 1419970703 1055.6847
0505 1419974609 1058.7855
0506 1419978515 1057.7758
0507 1419982421 1055.6471
0508 1419986328 1061.0577
0509 1419990234 1058.0767
0510 1419994140 1057.9003
0511 1419998046 1058.9379
0512 1420001953 1060.0771
0513 1420005859 1060.2911
0514 1420009765 1057.4419
0515 1420013671 1056.7213
0516 1420017578 1057.8813
0517 1420021484 1056.4315
0518 1420025390 1056.0830
0519 1420029296 1061.2310
0520 1420033203 1061.5475
0521 1420037109 1055.0220
0522 1420041015 1055.3282
0523 1420044921 1057.8438
0524 1420048828 1059.6589
0525 1420052734 1061.1360
0526 1420056640 1056.4860
0527 1420060546 1056.9525
0528 1420064453 1059.1589
0529 1420068359 1062.8506
0530 1420072265 1058.3546
0531 1420076171 1059.8014
0532 1420080078 1060.2557
0533 1420083984 1062.2629
0534 1420087890 1056.7463
0535 1420091796 1058.9215
0536 1420095703 1062.8409
0537 1420099609 1063.0575
0538 1420103515 1057.6989
0539 1420107421 1060.1875
0540 1420111328 1061.2188
0541 1420115234 1059.3678
0542 1420119140 1058.2150
0543 1420123046 1062.5055
0544 1420126953 1057.1656
0545 1420130859 1058.4290
0546 1420134765 1059.3055
0547 1420138671 1059.2306
0548 1420142578 1058.1495
0549 1420146484 1058.4150
0550 1420150390 1062.8228
0551 1420154296 1061.9889
0552 1420158203 1059.2638
0553 1420162109 1055.8624
0554 1420166015 1059.3484
0555 1420169921 1059.6240
0556 1420173828 1058.3799
0557 1420177734 1053.6019
0558 1420181640 1058.1584
0559 1420185546 1060.9037
0560 1420189453 1058.6437
0561 1420193359 1055.7036
0562 1420197265 1054.0050
0563 1420201171 1055.7469
0564 1420205078 1060.1415
0565 1420208984 1054.4122
0566 1420212890 1052.5575
0567 1420216796 1056.5929
0568 1420220703 1055.0560
0569 1420224609 1057.8337
0570 1420228515 1053.4825
0571 1420232421 1049.1506
0572 1420236328 1050.7327
0573 1420240234 1050.5339
0574 1420244140 1048.8590
0575 1420248046 1050.7628
0576 1420251953 1051.7468
0577 1420255859 1054.8053
0578 1420259765 1047.8412
0579 1420263671 1049.6240
0580 1420267578 1045.9589
0581 1420271484 1048.5405
0582 1420275390 1047.1368
0583 1420279296 1045.6012
0584 1420283203 1048.1624
0585 1420287109 1048.7601
0586 1420291015 1043.6534
0587 1420294921 1044.4132
0588 1420298828 1046.6581
0589 1420302734 1038.9536
0590 1420306640 1040.0867
0591 1420310546 1044.6523
0592 1420314453 1045.8060
0593 1420318359 1042.4701
0594 1420322265 1042.3135
0595 1420326171 1038.4043
0596 1420330078 1036.3398
0597 1420333984 1040.8065
0598 1420337890 1037.9675
0599 1420341796 1036.2548
0600 1420345703 1036.6306
0601 1420349609 1038.5939
0602 1420353515 1036.3452
0603 1420357421 1041.4493
0604 1420361328 1037.3226
0605 1420365234 1034.7083
0606 1420369140 1035.0105
0607 1420373046 1033.4095
0608 1420376953 1029.8668
0609 1420380859 1038.4095
0610 1420384765 1033.4067
0611 1420388671 1031.4768
0612 1420392578 1030.3483
0613 1420396484 1029.0127
0614 1420400390 1029.4950
0615 1420404296 1028.8320
0616 1420408203 1028.7412
0617 1420412109 1029.5417
0618 1420416015 1025.2161
0619 1420419921 1026.2085
0620 1420423828 1025.7565
0621 1420427734 1026.2124
0622 1420431640 1027.4387
0623 1420435546 1023.1061
0624 1420439453 1023.4652
0625 1420443359 1023.4338
0626 1420447265 1025.5588
0627 1420451171 1024.5380
0628 1420455078 1021.0439
0629 1420458984 1021.6835
0630 1420462890 1022.5803
0631 1420466796 1021.5045
0632 1420470703 1023.4805
0633 1420474609 1021.1734
0634 1420478515 1020.1960
0635 1420482421 1022.7801
0636 1420486328 1022.2956
0637 1420490234 1020.6547
0638 1420494140 1023.6745
0639 1420498046 1022.1235
0640 1420501953 1022.0970
0641 1420505859 1022.0831
0642 1420509765 1021.5376
0643 1420513671 1019.2067
0644 1420517578 1023.3819
0645 1420521484 1023.5319
0646 1420525390 1024.5371
0647 1420529296 1024.0736
0648 1420533203 1020.1650
0649 1420537109 1019.2489
0650 1420541015 1022.1550
0651 1420544921 1021.8281
0652 1420548828 1023.6541
0653 1420552734 1026.5712
0654 1420556640 1019.3976
0655 1420560546 1021.1165
0656 1420564453 1024.2605
0657 1420568359 1023.7167
0658 1420572265 1023.3608
0659 1420576171 1023.6333
0660 1420580078 1021.4687
0661 1420583984 1018.2418
0662 1420587890 1021.3799
0663 1420591796 1024.5105
0664 1420595703 1022.3193
0665 1420599609 1024.0396
0666 1420603515 1024.0918
0667 1420607421 1021.9720
0668 1420611328 1021.4462
0669 1420615234 1025.9905
0670 1420619140 1029.8475
0671 1420623046 1027.1602
0672 1420626953 1021.3169
0673 1420630859 1020.4963
0674 1420634765 1023.7485
0675 1420638671 1022.3141
0676 1420642578 1022.4645
0677 1420646484 1022.9540
0678 1420650390 1021.7460
0679 1420654296 1024.6888
0680 1420658203 1022.2967
0681 1420662109 1025.5132
0682 1420666015 1021.9376
0683 1420669921 1020.9689
0684 1420673828 1019.4920
0685 1420677734 1020.1110
0686 1420681640 1020.0287
0687 1420685546 1019.9197
0688 1420689453 1020.3194
0689 1420693359 1016.3119
0690 1420697265 1019.9052
0691 1420701171 1021.0115
0692 1420705078 1018.1447
0693 1420708984 1018.3416
0694 1420712890 1013.9256
0695 1420716796 1016.7095
0696 1420720703 1016.0547
0697 1420724609 1016.4067
0698 1420728515 1018.1025
0699 1420732421 1015.5829
0700 1420736328 1010.1923
0701 1420740234 1013.0941
0702 1420744140 1013.0005
0703 1420748046 1008.8443
0704 1420751953 1012.9622
0705 1420755859 1009.9686
0706 1420759765 1013.0615
0707 1420763671 1011.6472
0708 1420767578 1011.7636
0709 1420771484 1011.3759
0710 1420775390 1010.6667
0711 1420779296 1007.3605
0712 1420783203 1002.8193
0713 1420787109 1008.2740
0714 1420791015 1007.6379
0715 1420794921 1009.9557
0716 1420798828 1008.7751
0717 1420802734 1006.7850
0718 1420806640 1006.0838
0719 1420810546 1003.9986
0720 1420814453 1000.8261
0721 1420818359 1002.5735
0722 1420822265 1003.2408
0723 1420826171 1006.1440
0724 1420830078 1005.0218
0725 1420833984 1002.8849
0726 1420837890 1004.4511
0727 1420841796 1003.6541
0728 1420845703 1003.1857
0729 1420849609 1003.3557
0730 1420853515 1002.1667
0731 1420857421 1003.8889
0732 1420861328 1004.7620
0733 1420865234 1006.0948
0734 1420869140 999.6154
0735 1420873046 999.0009
0736 1420876953 1001.3593
0737 1420880859 1000.8599
0738 1420884765 1001.1733
0739 1420888671 1001.4778
0740 1420892578 1001.6687
0741 1420896484 1005.7625
0742 1420900390 1004.8865
0743 1420904296 1002.2514
0744 1420908203 1004.0381
0745 1420912109 1001.4714
0746 1420916015 1004.5542
0747 1420919921 1004.1432
0748 1420923828 1006.3710
0749 1420927734 1003.6252
0750 1420931640 1006.4917
0751 1420935546 1002.9083
0752 1420939453 999.2275
0753 1420943359 1004.5507
0754 1420947265 1004.9014
0755 1420951171 1009.8884
0756 1420955078 1008.7505
0757 1420958984 1006.7427
0758 1420962890 1010.5696
0759 1420966796 1013.2056
0760 1420970703 1008.4395
0761 1420974609 1010.2866
0762 1420978515 1009.7407
0763 1420982421 1014.7192
0764 1420986328 1013.9058
0765 1420990234 1015.3358
0766 1420994140 1020.3135
0767 1420998046 1018.6733
0768 1421001953 1018.9151
0769 1421005859 1020.6412
0770 1421009765 1021.5413
0771 1421013671 1021.4194
0772 1421017578 1025.6586
0773 1421021484 1024.9248
0774 1421025390 1028.3285
0775 1421029296 1026.7913
0776 1421033203 1031.3137
0777 1421037109 1029.2615
0778 1421041015 1032.4937
0779 1421044921 1028.3109
0780 1421048828 1027.2069
0781 1421052734 1033.3203
0782 1421056640 1034.4219
0783 1421060546 1034.5061
0784 1421064453 1038.1427
0785 1421068359 1033.5209
0786 1421072265 1034.1473
0787 1421076171 1037.5553
0788 1421080078 1040.6060
0789 1421083984 1045.6949
0790 1421087890 1043.4174
0791 1421091796 1043.5400
0792 1421095703 1042.7894
0793 1421099609 1044.5431
0794 1421103515 1052.8402
0795 1421107421 1046.2644
0796 1421111328 1046.6681
0797 1421115234 1047.7456
0798 1421119140 1050.0112
0799 1421123046 1046.9059
0800 1421126953 1050.1439
0801 1421130859 1049.1083
0802 1421134765 1052.7737
0803 1421138671 1053.9269
0804 1421142578 1049.0807
0805 1421146484 1050.4006
0806 1421150390 1054.1897
0807 1421154296 1053.9741
0808 1421158203 1052.3431
0809 1421162109 1056.5093
0810 1421166015 1057.1598
0811 1421169921 1049.2235
0812 1421173828 1050.0631
0813 1421177734 1053.5696
0814 1421181640 1058.3813
0815 1421185546 1057.4938
0816 1421189453 1050.4259
0817 1421193359 1052.3760
0818 1421197265 1052.6980
0819 1421201171 1052.9158
0820 1421205078 1051.8466
0821 1421208984 1049.8612
0822 1421212890 1050.5426
0823 1421216796 1052.7622
0824 1421220703 1046.8741
0825 1421224609 1050.8593
0826 1421228515 1049.6252
0827 1421232421 1052.6035
0828 1421236328 1050.1249
0829 1421240234 1047.3198
0830 1421244140 1048.7677
0831 1421248046 1046.2737
0832 1421251953 1047.1917
0833 1421255859 1045.2606
0834 1421259765 1043.3838
0835 1421263671 1050.8727
0836 1421267578 1046.8920
0837 1421271484 1046.8148
0838 1421275390 1042.0743
0839 1421279296 1043.0172
0840 1421283203 1040.9543
0841 1421287109 1042.6620
0842 1421291015 1040.2471
0843 1421294921 1038.4872
0844 1421298828 1034.7240
0845 1421302734 1033.9823
0846 1421306640 1034.8649
0847 1421310546 1037.5470
0848 1421314453 1032.4124
0849 1421318359 1033.3831
0850 1421322265 1029.5492
0851 1421326171 1029.1639
0852 1421330078 1029.8994
0853 1421333984 1029.8368
0854 1421337890 1029.3479
0855 1421341796 1026.9738
0856 1421345703 1025.4603
0857 1421349609 1023.2499
0858 1421353515 1027.6356
0859 1421357421 1025.5085
0860 1421361328 1021.6747
0861 1421365234 1018.5825
0862 1421369140 1021.9770
0863 1421373046 1021.0894
0864 1421376953 1020.3231
0865 1421380859 1017.8675
0866 1421384765 1017.7900
0867 1421388671 1014.3445
0868 1421392578 1016.5723
0869 1421396484 1015.4952
0870 1421400390 1017.1953
0871 1421404296 1015.5333
0872 1421408203 1013.6625
0873 1421412109 1012.8033
0874 1421416015 1011.6330
0875 1421419921 1014.1589
0876 1421423828 1011.5400
0877 1421427734 1013.0537
0878 1421431640 1010.6927
0879 1421435546 1009.9259
0880 1421439453 1009.6141
0881 1421443359 1010.4624
0882 1421447265 1013.3411
0883 1421451171 1014.7946
0884 1421455078 1013.1665
0885 1421458984 1012.6426
0886 1421462890 1012.7204
0887 1421466796 1014.9035
0888 1421470703 1011.9594
0889 1421474609 1011.9029
0890 1421478515 1012.1608
0891 1421482421 1016.1829
0892 1421486328 1013.4503
0893 1421490234 1015.4008
0894 1421494140 1016.8052
0895 1421498046 1019.3181
0896 1421501953 1019.4273
0897 1421505859 1020.4882
0898 1421509765 1019.2932
0899 1421513671 1020.0856
0900 1421517578 1023.3477
0901 1421521484 1019.5286
0902 1421525390 1025.9834
0903 1421529296 1024.7959
0904 1421533203 1027.8506
0905 1421537109 1026.7825
0906 1421541015 1029.0442
0907 1421544921 1034.0349
0908 1421548828 1030.9722
0909 1421552734 1032.8693
0910 1421556640 1036.2845
0911 1421560546 1032.1339
0912 1421564453 1030.1299
0913 1421568359 1039.7932
0914 1421572265 1038.9791
0915 1421576171 1040.2872
0916 1421580078 1039.8173
0917 1421583984 1047.3922
0918 1421587890 1045.2981
0919 1421591796 1045.6788
0920 1421595703 1043.7284
0921 1421599609 1047.0984
0922 1421603515 1045.9749
0923 1421607421 1050.1080
0924 1421611328 1052.1702
0925 1421615234 1055.9176
0926 1421619140 1053.7041
0927 1421623046 1057.3159
0928 1421626953 1056.3853
0929 1421630859 1058.9415
0930 1421634765 1057.8862
0931 1421638671 1064.4730
0932 1421642578 1059.8602
0933 1421646484 1065.8303
0934 1421650390 1064.2263
0935 1421654296 1068.4781
0936 1421658203 1063.3745
0937 1421662109 1061.5330
0938 1421666015 1070.1891
0939 1421669921 1069.1252
0940 1421673828 1070.7205
0941 1421677734 1072.5404
0942 1421681640 1071.3276
0943 1421685546 1068.4116
0944 1421689453 1072.4186
0945 1421693359 1067.8063
0946 1421697265 1072.2981
0947 1421701171 1072.6108
0948 1421705078 1069.0836
0949 1421708984 1072.2537
0950 1421712890 1073.7968
0951 1421716796 1076.4574
0952 1421720703 1075.8893
0953 1421724609 1079.9159
0954 1421728515 1074.9974
0955 1421732421 1074.1080
0956 1421736328 1072.0876
0957 1421740234 1069.0479
0958 1421744140 1068.0786
0959 1421748046 1076.8208
0960 1421751953 1075.6141
0961 1421755859 1071.4781
0962 1421759765 1070.0718
0963 1421763671 1072.8740
0964 1421767578 1073.0704
0965 1421771484 1071.4487
0966 1421775390 1066.4065
0967 1421779296 1070.0964
0968 1421783203 1068.0812
0969 1421787109 1071.1489
0970 1421791015 1069.1328
0971 1421794921 1067.4834
0972 1421798828 1063.8617
0973 1421802734 1061.8265
0974 1421806640 1060.4988
0975 1421810546 1062.5757
0976 1421814453 1063.2186
0977 1421818359 1060.7345
0978 1421822265 1058.1456
0979 1421826171 1056.9561
0980 1421830078 1057.8329
0981 1421833984 1057.4176
0982 1421837890 1051.8357
0983 1421841796 1051.6565
0984 1421845703 1046.5906
0985 1421849609 1046.9724
0986 1421853515 1048.8203
0987 1421857421 1049.7372
0988 1421861328 1048.0376
0989 1421865234 1045.8671
0990 1421869140 1047.2855
0991 1421873046 1041.4532
0992 1421876953 1039.1219
0993 1421880859 1044.3032
0994 1421884765 1037.7285
0995 1421888671 1033.9011
0996 1421892578 1031.7197
0997 1421896484 1030.8025
0998 1421900390 1034.0771
0999 1421904296 1030.0288
1000 1421908203 1033.3064
1001 1421912109 1028.9055
1002 1421916015 1026.3683
1003 1421919921 1027.7448
1004 1421923828 1026.6495
1005 1421927734 1025.4988
1006 1421931640 1019.6286
1007 1421935546 1021.2673
1008 1421939453 1025.3015
1009 1421943359 1023.8118
1010 1421947265 1019.7587
1011 1421951171 1020.7321
1012 1421955078 1013.4513
1013 1421958984 1016.0580
1014 1421962890 1022.1868
1015 1421966796 1016.5280
1016 1421970703 1018.5508
1017 1421974609 1018.5124
1018 1421978515 1019.2114
1019 1421982421 1019.6821
1020 1421986328 1018.7228
1021 1421990234 1016.7830
1022 1421994140 1022.0245
1023 1421998046 1051.7635
1024 1422001953 1132.2629
1025 1422005859 1049.5438
1026 1422009765 1026.6097
1027 1422013671 1018.1398
1028 1422017578 1017.7293
1029 1422021484 1015.0195
1030 1422025390 1015.8831
1031 1422029296 1016.2593
1032 1422033203 1018.8391
1033 1422037109 1015.9976
1034 1422041015 1019.9665
1035 1422044921 1020.9258
1036 1422048828 1018.6805
1037 1422052734 1020.3769
1038 1422056640 1018.1123
1039 1422060546 1017.6954
1040 1422064453 1021.0197
1041 1422068359 1019.1918
1042 1422072265 1018.4522
1043 1422076171 1019.5228
1044 1422080078 1022.4880
1045 1422083984 1022.8469
1046 1422087890 1020.6818
1047 1422091796 1022.5800
1048 1422095703 1022.6645
1049 1422099609 1029.2227
1050 1422103515 1031.2573
1051 1422107421 1033.9203
1052 1422111328 1031.4861
1053 1422115234 1032.4073
1054 1422119140 1030.9781
1055 1422123046 1031.0675
1056 1422126953 1033.0471
1057 1422130859 1030.6561
1058 1422134765 1038.1437
1059 1422138671 1040.6631
1060 1422142578 1041.6332
1061 1422146484 1038.4888
1062 1422150390 1042.9811
1063 1422154296 1046.3795
1064 1422158203 1043.2305
1065 1422162109 1046.4209
1066 1422166015 1048.0057
1067 1422169921 1046.7174
1068 1422173828 1048.7598
1069 1422177734 1048.6395
1070 1422181640 1050.2072
1071 1422185546 1052.0421
1072 1422189453 1053.5060
1073 1422193359 1052.2997
1074 1422197265 1054.3999
1075 1422201171 1054.3771
1076 1422205078 1059.1960
1077 1422208984 1053.0248
1078 1422212890 1053.8273
1079 1422216796 1057.6129
1080 1422220703 1062.7869
1081 1422224609 1062.2784
1082 1422228515 1059.0927
1083 1422232421 1060.7708
1084 1422236328 1061.0541
1085 1422240234 1061.5000
1086 1422244140 1060.4548
1087 1422248046 1062.4373
1088 1422251953 1059.6427
1089 1422255859 1059.8433
1090 1422259765 1060.5134
1091 1422263671 1057.8529
1092 1422267578 1061.8452
1093 1422271484 1065.2552
1094 1422275390 1065.9528
1095 1422279296 1061.2179
1096 1422283203 1063.2686
1097 1422287109 1063.3925
1098 1422291015 1059.4603
1099 1422294921 1057.3843
1100 1422298828 1060.4414
1101 1422302734 1062.7245
1102 1422306640 1059.7714
1103 1422310546 1060.7963
1104 1422314453 1062.2389
1105 1422318359 1062.6022
1106 1422322265 1054.9144
1107 1422326171 1059.9813
1108 1422330078 1061.6112
1109 1422333984 1055.6075
1110 1422337890 1056.4481
1111 1422341796 1057.0391
1112 1422345703 1053.8254
1113 1422349609 1048.2808
1114 1422353515 1047.3953
1115 1422357421 1047.4541
1116 1422361328 1048.7870
1117 1422365234 1048.9553
1118 1422369140 1044.7382
1119 1422373046 1048.2006
1120 1422376953 1047.9590
1121 1422380859 1046.9957
1122 1422384765 1038.4688
1123 1422388671 1039.3544
1124 1422392578 1040.3918
1125 1422396484 1036.2837
1126 1422400390 1037.7172
1127 1422404296 1035.0203
1128 1422408203 1031.7686
1129 1422412109 1032.8389
1130 1422416015 1035.5314
1131 1422419921 1028.1635
1132 1422423828 1025.8470
1133 1422427734 1025.5880
1134 1422431640 1022.3306
1135 1422435546 1022.4216
1136 1422439453 1023.2049
1137 1422443359 1021.6354
1138 1422447265 1022.9661
1139 1422451171 1018.6927
1140 1422455078 1019.1981
1141 1422458984 1018.0207
1142 1422462890 1016.4641
1143 1422466796 1010.0302
1144 1422470703 1015.2095
1145 1422474609 1013.6231
1146 1422478515 1010.3330
1147 1422482421 1009.5527
1148 1422486328 1006.1298
1149 1422490234 1008.0720
1150 1422494140 1006.6176
1151 1422498046 1004.7743
1152 1422501953 1004.8445
1153 1422505859 1004.7278
1154 1422509765 1003.5521
1155 1422513671 1002.6782
1156 1422517578 1003.2475
1157 1422521484 998.6609
1158 1422525390 1002.7834
1159 1422529296 996.7255
1160 1422533203 997.9499
1161 1422537109 991.9633
1162 1422541015 993.9108
1163 1422544921 1000.7412
1164 1422548828 1001.8837
1165 1422552734 993.3813
1166 1422556640 994.5600
1167 1422560546 992.0934
1168 1422564453 997.3768
1169 1422568359 997.4852
1170 1422572265 998.2449
1171 1422576171 997.7333
1172 1422580078 996.6583
1173 1422583984 1000.1555
1174 1422587890 1000.0668
1175 1422591796 999.1085
1176 1422595703 994.8943
1177 1422599609 1000.9454
1178 1422603515 999.5181
1179 1422607421 1004.4651
1180 1422611328 999.2596
1181 1422615234 1004.0161
1182 1422619140 1002.2607
1183 1422623046 999.8143
1184 1422626953 1005.5173
1185 1422630859 1002.3732
1186 1422634765 1003.5540
1187 1422638671 1004.9210
1188 1422642578 1002.8381
1189 1422646484 1008.8608
1190 1422650390 1009.1024
1191 1422654296 1010.4127
1192 1422658203 1011.6761
1193 1422662109 1006.4940
1194 1422666015 1010.4874
1195 1422669921 1013.6145
1196 1422673828 1015.2101
1197 1422677734 1011.6153
1198 1422681640 1016.6957
1199 1422685546 1012.9976
1200 1422689453 1014.7527
1201 1422693359 1013.9949
1202 1422697265 1010.9400
1203 1422701171 1016.4623
1204 1422705078 1021.0645
1205 1422708984 1018.2657
1206 1422712890 1025.2435
1207 1422716796 1026.3882
1208 1422720703 1022.1378
1209 1422724609 1025.4994
1210 1422728515 1024.4799
1211 1422732421 1026.4916
1212 1422736328 1029.9880
1213 1422740234 1024.6527
1214 1422744140 1027.9163
1215 1422748046 1032.5391
1216 1422751953 1033.2124
1217 1422755859 1028.0962
1218 1422759765 1028.4084
1219 1422763671 1032.1982
1220 1422767578 1033.0413
1221 1422771484 1034.8057
1222 1422775390 1027.9792
1223 1422779296 1032.8340
1224 1422783203 1032.9600
1225 1422787109 1035.3274
1226 1422791015 1031.0173
1227 1422794921 1034.4348
1228 1422798828 1035.9379
1229 1422802734 1033.3804
1230 1422806640 1032.6736
1231 1422810546 1034.0703
1232 1422814453 1034.8956
1233 1422818359 1038.9596
1234 1422822265 1033.6135
1235 1422826171 1036.1251
1236 1422830078 1034.5510
1237 1422833984 1037.2780
1238 1422837890 1032.0557
1239 1422841796 1034.4532
1240 1422845703 1035.1774
1241 1422849609 1033.3036
1242 1422853515 1033.7858
1243 1422857421 1032.7878
1244 1422861328 1028.9471
1245 1422865234 1029.4817
1246 1422869140 1028.9491
1247 1422873046 1029.1306
1248 1422876953 1028.4331
1249 1422880859 1031.9441
1250 1422884765 1027.5674
1251 1422888671 1026.9249
1252 1422892578 1024.2869
1253 1422896484 1026.9050
1254 1422900390 1024.9664
1255 1422904296 1026.9081
1256 1422908203 1026.4186
1257 1422912109 1027.9854
1258 1422916015 1022.4523
1259 1422919921 1020.1927
1260 1422923828 1020.1207
1261 1422927734 1016.0441
1262 1422931640 1016.4706
1263 1422935546 1016.4225
1264 1422939453 1021.2394
1265 1422943359 1019.0927
1266 1422947265 1017.7147
1267 1422951171 1012.8431
1268 1422955078 1014.5313
1269 1422958984 1009.4119
1270 1422962890 1010.7280
1271 1422966796 1008.0612
1272 1422970703 1008.8959
1273 1422974609 1009.8137
1274 1422978515 1003.4967
1275 1422982421 1006.3790
1276 1422986328 1004.3448
1277 1422990234 1003.0588
1278 1422994140 999.1345
1279 1422998046 996.2018
1280 1423001953 1000.4401
1281 1423005859 1001.9998
1282 1423009765 997.4583
1283 1423013671 997.9135
1284 1423017578 998.3534
1285 1423021484 995.9744
1286 1423025390 996.1175
1287 1423029296 996.0627
1288 1423033203 992.5661
1289 1423037109 993.7019
1290 1423041015 990.8861
1291 1423044921 988.2877
1292 1423048828 992.6945
1293 1423052734 992.0456
1294 1423056640 989.2619
1295 1423060546 990.3984
1296 1423064453 986.3950
1297 1423068359 980.9390
1298 1423072265 985.0911
1299 1423076171 982.4361
1300 1423080078 984.6614
1301 1423083984 985.5294
1302 1423087890 980.3748
1303 1423091796 981.0855
1304 1423095703 980.4987
1305 1423099609 983.2026
1306 1423103515 984.4101
1307 1423107421 983.9415
1308 1423111328 984.7611
1309 1423115234 982.3096
1310 1423119140 978.6043
1311 1423123046 982.9548
1312 1423126953 983.9340
1313 1423130859 980.9316
1314 1423134765 981.2880
1315 1423138671 981.6122
1316 1423142578 981.6460
1317 1423146484 985.7139
1318 1423150390 983.3553
1319 1423154296 982.3430
1320 1423158203 980.3725
1321 1423162109 982.0142
1322 1423166015 983.5822
1323 1423169921 982.8091
1324 1423173828 981.4328
1325 1423177734 984.5286
1326 1423181640 983.6639
1327 1423185546 984.4163
1328 1423189453 987.1389
1329 1423193359 985.7471
1330 1423197265 987.0656
1331 1423201171 985.7036
1332 1423205078 982.7245
1333 1423208984 983.8530
1334 1423212890 985.0903
1335 1423216796 986.6927
1336 1423220703 987.8587
1337 1423224609 986.1260
1338 1423228515 987.8512
1339 1423232421 988.2411
1340 1423236328 989.9587
1341 1423240234 992.3159
1342 1423244140 990.8107
1343 1423248046 991.9671
1344 1423251953 987.9376
1345 1423255859 991.9974
1346 1423259765 992.3627
1347 1423263671 993.8065
1348 1423267578 992.3881
1349 1423271484 990.2671
1350 1423275390 992.3319
1351 1423279296 993.8696
1352 1423283203 993.6572
1353 1423287109 994.1323
1354 1423291015 994.0786
1355 1423294921 992.5496
1356 1423298828 995.1726
1357 1423302734 998.6568
1358 1423306640 996.4641
1359 1423310546 993.6650
1360 1423314453 994.0944
1361 1423318359 999.1770
1362 1423322265 998.9633
1363 1423326171 992.9817
1364 1423330078 998.5941
1365 1423333984 1000.0367
1366 1423337890 999.9479
1367 1423341796 1000.9976
1368 1423345703 1001.7667
1369 1423349609 1001.7510
1370 1423353515 1002.4251
1371 1423357421 996.3792
1372 1423361328 996.9028
1373 1423365234 1000.6622
1374 1423369140 1002.1493
1375 1423373046 1002.3698
1376 1423376953 998.2482
1377 1423380859 1001.5716
1378 1423384765 999.0450
1379 1423388671 1001.9048
1380 1423392578 998.6006
1381 1423396484 1000.4300
1382 1423400390 1000.2034
1383 1423404296 999.0139
1384 1423408203 997.9843
1385 1423412109 995.6405
1386 1423416015 996.1008
1387 1423419921 997.9204
1388 1423423828 997.3452
1389 1423427734 996.3853
1390 1423431640 998.4084
1391 1423435546 998.1649
1392 1423439453 995.5255
1393 1423443359 998.0499
1394 1423447265 995.9120
1395 1423451171 996.0546
1396 1423455078 997.1304
1397 1423458984 992.4847
1398 1423462890 993.9879
1399 1423466796 998.3726
1400 1423470703 998.0292
1401 1423474609 998.7342
1402 1423478515 995.8075
1403 1423482421 995.6561
1404 1423486328 991.0319
1405 1423490234 996.6536
1406 1423494140 996.4716
1407 1423498046 995.5194
1408 1423501953 993.0254
1409 1423505859 993.8384
1410 1423509765 992.8359
1411 1423513671 992.5736
1412 1423517578 993.1855
1413 1423521484 995.9896
1414 1423525390 991.8401
1415 1423529296 995.7755
1416 1423533203 996.9659
1417 1423537109 994.5916
1418 1423541015 991.3077
1419 1423544921 994.0802
1420 1423548828 990.2627
1421 1423552734 994.7098
1422 1423556640 993.4695
1423 1423560546 996.8868
1424 1423564453 999.3200
1425 1423568359 994.1544
1426 1423572265 997.5480
1427 1423576171 995.1244
1428 1423580078 997.7899
1429 1423583984 999.7452
1430 1423587890 995.5500
1431 1423591796 995.2899
1432 1423595703 995.0418
1433 1423599609 995.4037
1434 1423603515 998.2339
1435 1423607421 996.5362
1436 1423611328 997.8223
1437 1423615234 999.4706
1438 1423619140 998.1716
1439 1423623046 1000.1475
1440 1423626953 999.5269
1441 1423630859 1000.6534
1442 1423634765 997.2086
1443 1423638671 1000.0434
1444 1423642578 996.4077
1445 1423646484 1002.5580
1446 1423650390 1001.4506
1447 1423654296 1006.1585
1448 1423658203 1006.3151
1449 1423662109 1004.3257
1450 1423666015 1003.3735
1451 1423669921 1003.3418
1452 1423673828 1002.3568
1453 1423677734 1009.9634
1454 1423681640 1011.1248
1455 1423685546 1003.7527
1456 1423689453 1008.9835
1457 1423693359 1004.1526
1458 1423697265 1009.2139
1459 1423701171 1008.8519
1460 1423705078 1009.4726
1461 1423708984 1006.8546
1462 1423712890 1010.4825
1463 1423716796 1009.4813
1464 1423720703 1008.4572
1465 1423724609 1010.8951
1466 1423728515 1010.5505
1467 1423732421 1013.0662
1468 1423736328 1012.1699
1469 1423740234 1012.4185
1470 1423744140 1011.9271
1471 1423748046 1018.4379
1472 1423751953 1017.8691
1473 1423755859 1013.3949
1474 1423759765 1015.8871
1475 1423763671 1018.2299
1476 1423767578 1022.3453
1477 1423771484 1020.2023
1478 1423775390 1017.2584
1479 1423779296 1018.0916
1480 1423783203 1020.6741
1481 1423787109 1022.9706
1482 1423791015 1016.2723
1483 1423794921 1021.6940
1484 1423798828 1021.6693
1485 1423802734 1027.6755
1486 1423806640 1023.8909
1487 1423810546 1022.3961
1488 1423814453 1023.2906
1489 1423818359 1022.7487
1490 1423822265 1024.9650
1491 1423826171 1023.7985
1492 1423830078 1023.6849
1493 1423833984 1025.5291
1494 1423837890 1024.9453
1495 1423841796 1025.8040
1496 1423845703 1023.9272
1497 1423849609 1023.4219
1498 1423853515 1023.4724
1499 1423857421 1023.5507
1500 1423861328 1023.6974
1501 1423865234 1021.5895
1502 1423869140 1028.0363
1503 1423873046 1027.3778
1504 1423876953 1024.6855
1505 1423880859 1022.8297
1506 1423884765 1027.8171
1507 1423888671 1027.7029
1508 1423892578 1023.0342
1509 1423896484 1026.5590
1510 1423900390 1024.4260
1511 1423904296 1023.1288
1512 1423908203 1022.5062
1513 1423912109 1021.3033
1514 1423916015 1019.3845
1515 1423919921 1022.5267
1516 1423923828 1019.7989
1517 1423927734 1023.7870
1518 1423931640 1024.0093
1519 1423935546 1022.1970
1520 1423939453 1020.2811
1521 1423943359 1016.6047
1522 1423947265 1019.3218
1523 1423951171 1022.7390
1524 1423955078 1018.4133
1525 1423958984 1022.1234
1526 1423962890 1023.4661
1527 1423966796 1015.2030
1528 1423970703 1022.6115
1529 1423974609 1019.1458
1530 1423978515 1021.7534
1531 1423982421 1019.7806
1532 1423986328 1023.7160
1533 1423990234 1026.4310
1534 1423994140 1024.6664
1535 1423998046 1023.4169
1536 1424001953 1032.4836
1537 1424005859 1020.3440
1538 1424009765 1017.9881
1539 1424013671 1022.1160
1540 1424017578 1018.4044
1541 1424021484 1018.8898
1542 1424025390 1019.8374
1543 1424029296 1021.2615
1544 1424033203 1020.6924
1545 1424037109 1017.4774
1546 1424041015 1017.9601
1547 1424044921 1016.9706
1548 1424048828 1017.8904
1549 1424052734 1018.6436
1550 1424056640 1018.5751
1551 1424060546 1017.7395
1552 1424064453 1022.2733
1553 1424068359 1017.6287
1554 1424072265 1021.1469
1555 1424076171 1023.4418
1556 1424080078 1022.6847
1557 1424083984 1024.7249
1558 1424087890 1018.4255
1559 1424091796 1025.4146
1560 1424095703 1024.7001
1561 1424099609 1024.1727
1562 1424103515 1024.8639
1563 1424107421 1023.0561
1564 1424111328 1024.3059
1565 1424115234 1022.9007
1566 1424119140 1022.7466
1567 1424123046 1022.4818
1568 1424126953 1023.1886
1569 1424130859 1025.2517
1570 1424134765 1024.9824
1571 1424138671 1027.3802
1572 1424142578 1029.1626
1573 1424146484 1028.7584
1574 1424150390 1030.8160
1575 1424154296 1030.3534
1576 1424158203 1028.5193
1577 1424162109 1031.0247
1578 1424166015 1030.0375
1579 1424169921 1030.4717
1580 1424173828 1031.8500
1581 1424177734 1035.5886
1582 1424181640 1037.3104
1583 1424185546 1039.1914
1584 1424189453 1042.2219
1585 1424193359 1041.6146
1586 1424197265 1038.3276
1587 1424201171 1037.6277
1588 1424205078 1035.6196
1589 1424208984 1044.0936
1590 1424212890 1045.4528
1591 1424216796 1042.8660
1592 1424220703 1042.3768
1593 1424224609 1045.8096
1594 1424228515 1041.4994
1595 1424232421 1044.8228
1596 1424236328 1046.8303
1597 1424240234 1044.6858
1598 1424244140 1051.2235
1599 1424248046 1048.3271
1600 1424251953 1053.9877
1601 1424255859 1050.7115
1602 1424259765 1051.0844
1603 1424263671 1051.6838
1604 1424267578 1057.0262
1605 1424271484 1055.1414
1606 1424275390 1053.3983
1607 1424279296 1054.6506
1608 1424283203 1064.2460
1609 1424287109 1055.1471
1610 1424291015 1057.9288
1611 1424294921 1060.0900
1612 1424298828 1058.4106
1613 1424302734 1060.2460
1614 1424306640 1061.3671
1615 1424310546 1064.5142
1616 1424314453 1063.0801
1617 1424318359 1062.6732
1618 1424322265 1062.1466
1619 1424326171 1063.1902
1620 1424330078 1064.3862
1621 1424333984 1061.5834
1622 1424337890 1064.7111
1623 1424341796 1068.2847
1624 1424345703 1061.8374
1625 1424349609 1065.2339
1626 1424353515 1070.1586
1627 1424357421 1065.5685
1628 1424361328 1063.2954
1629 1424365234 1066.3571
1630 1424369140 1068.4084
1631 1424373046 1068.2439
1632 1424376953 1066.9142
1633 1424380859 1068.2523
1634 1424384765 1070.6243
1635 1424388671 1069.6302
1636 1424392578 1067.9473
1637 1424396484 1070.2688
1638 1424400390 1065.0856
1639 1424404296 1067.2957
1640 1424408203 1068.8624
1641 1424412109 1069.5559
1642 1424416015 1071.4471
1643 1424419921 1066.4114
1644 1424423828 1062.5406
1645 1424427734 1067.5898
1646 1424431640 1071.2782
1647 1424435546 1071.2679
1648 1424439453 1067.3643
1649 1424443359 1066.3021
1650 1424447265 1069.0674
1651 1424451171 1070.5623
1652 1424455078 1068.6554
1653 1424458984 1065.4646
1654 1424462890 1064.5321
1655 1424466796 1067.8192
1656 1424470703 1063.2743
1657 1424474609 1066.2122
1658 1424478515 1066.7739
1659 1424482421 1062.0299
1660 1424486328 1066.4760
1661 1424490234 1066.7377
1662 1424494140 1068.9667
1663 1424498046 1068.6559
1664 1424501953 1067.2322
1665 1424505859 1069.1256
1666 1424509765 1064.5587
1667 1424513671 1069.0812
1668 1424517578 1062.9784
1669 1424521484 1061.1907
1670 1424525390 1064.4141
1671 1424529296 1065.3309
1672 1424533203 1064.1089
1673 1424537109 1062.8529
1674 1424541015 1062.1663
1675 1424544921 1062.9791
1676 1424548828 1060.7046
1677 1424552734 1064.6156
1678 1424556640 1064.3663
1679 1424560546 1060.9709
1680 1424564453 1062.4315
1681 1424568359 1060.3832
1682 1424572265 1061.3898
1683 1424576171 1060.2876
1684 1424580078 1058.9563
1685 1424583984 1059.5876
1686 1424587890 1057.8706
1687 1424591796 1062.0988
1688 1424595703 1056.8029
1689 1424599609 1059.6041
1690 1424603515 1061.1343
1691 1424607421 1057.8470
1692 1424611328 1057.3367
1693 1424615234 1057.1215
1694 1424619140 1059.3243
1695 1424623046 1059.7255
1696 1424626953 1058.3132
1697 1424630859 1059.4650
1698 1424634765 1058.6796
1699 1424638671 1058.4852
1700 1424642578 1057.9678
1701 1424646484 1055.6653
1702 1424650390 1054.6211
1703 1424654296 1056.1082
1704 1424658203 1053.9453
1705 1424662109 1054.6948
1706 1424666015 1051.9242
1707 1424669921 1060.8605
1708 1424673828 1053.2585
1709 1424677734 1053.2848
1710 1424681640 1048.8848
1711 1424685546 1056.1245
1712 1424689453 1053.5500
1713 1424693359 1053.0223
1714 1424697265 1053.3868
1715 1424701171 1050.2841
1716 1424705078 1049.7806
1717 1424708984 1050.9487
1718 1424712890 1045.9963
1719 1424716796 1050.1019
1720 1424720703 1045.6184
1721 1424724609 1053.3663
1722 1424728515 1047.2306
1723 1424732421 1046.2681
1724 1424736328 1044.4796
1725 1424740234 1042.3834
1726 1424744140 1038.2872
1727 1424748046 1038.7887
1728 1424751953 1037.2698
1729 1424755859 1037.9133
1730 1424759765 1039.7184
1731 1424763671 1039.4985
1732 1424767578 1034.6169
1733 1424771484 1029.4402
1734 1424775390 1036.9102
1735 1424779296 1033.9434
1736 1424783203 1029.5464
1737 1424787109 1026.0509
1738 1424791015 1024.5553
1739 1424794921 1027.5751
1740 1424798828 1020.0852
1741 1424802734 1016.0394
1742 1424806640 1022.5043
1743 1424810546 1018.8701
1744 1424814453 1014.1409
1745 1424818359 1017.2484
1746 1424822265 1015.4740
1747 1424826171 1012.9426
1748 1424830078 1012.4079
1749 1424833984 1015.5724
1750 1424837890 1008.9644
1751 1424841796 1010.4598
1752 1424845703 1010.9467
1753 1424849609 1005.6743
1754 1424853515 1005.5062
1755 1424857421 1001.8635
1756 1424861328 1000.6149
1757 1424865234 998.9922
1758 1424869140 995.7020
1759 1424873046 998.2980
1760 1424876953 996.4781
1761 1424880859 994.7376
1762 1424884765 996.5141
1763 1424888671 991.5750
1764 1424892578 989.9617
1765 1424896484 987.7394
1766 1424900390 985.6672
1767 1424904296 989.4733
1768 1424908203 987.4933
1769 1424912109 987.6295
1770 1424916015 981.3351
1771 1424919921 979.6723
1772 1424923828 978.4054
1773 1424927734 982.1164
1774 1424931640 981.9017
1775 1424935546 978.1355
1776 1424939453 978.5624
1777 1424943359 977.3413
1778 1424947265 976.0059
1779 1424951171 976.1241
1780 1424955078 974.1119
1781 1424958984 976.5010
1782 1424962890 980.6834
1783 1424966796 978.0009
1784 1424970703 977.4694
1785 1424974609 973.5482
1786 1424978515 975.4059
1787 1424982421 975.9442
1788 1424986328 977.9473
1789 1424990234 977.5486
1790 1424994140 971.4305
1791 1424998046 974.6696
1792 1425001953 985.8763
1793 1425005859 1023.6161
1794 1425009765 1023.6798
1795 1425013671 981.2729
1796 1425017578 980.0378
1797 1425021484 984.4226
1798 1425025390 984.9047
1799 1425029296 982.4221
1800 1425033203 983.2512
1801 1425037109 988.4399
1802 1425041015 987.5476
1803 1425044921 989.1653
1804 1425048828 994.8186
1805 1425052734 993.5718
1806 1425056640 993.7811
1807 1425060546 995.5572
1808 1425064453 1000.7369
1809 1425068359 1001.2781
1810 1425072265 1003.5189
1811 1425076171 1007.1581
1812 1425080078 1007.5615
1813 1425083984 1013.6941
1814 1425087890 1009.9677
1815 1425091796 1013.2634
1816 1425095703 1021.5212
1817 1425099609 1020.3281
1818 1425103515 1028.2788
1819 1425107421 1028.7970
1820 1425111328 1028.9719
1821 1425115234 1029.7804
1822 1425119140 1034.1741
1823 1425123046 1038.8835
1824 1425126953 1041.7047
1825 1425130859 1048.0979
1826 1425134765 1049.9753
1827 1425138671 1052.3278
1828 1425142578 1058.7736
1829 1425146484 1060.6827
1830 1425150390 1065.2957
1831 1425154296 1066.4042
1832 1425158203 1067.8553
1833 1425162109 1071.6693
1834 1425166015 1075.6655
1835 1425169921 1077.7959
1836 1425173828 1078.5968
1837 1425177734 1086.4802
1838 1425181640 1083.5753
1839 1425185546 1089.2966
1840 1425189453 1092.1776
1841 1425193359 1090.8228
1842 1425197265 1094.9724
1843 1425201171 1099.8795
1844 1425205078 1103.8153
1845 1425208984 1105.7974
1846 1425212890 1106.8090
1847 1425216796 1106.4103
1848 1425220703 1104.0468
1849 1425224609 1106.1356
1850 1425228515 1105.2678
1851 1425232421 1107.3297
1852 1425236328 1109.4919
1853 1425240234 1106.7927
1854 1425244140 1105.9441
1855 1425248046 1106.0302
1856 1425251953 1106.3647
1857 1425255859 1104.4238
1858 1425259765 1104.1783
1859 1425263671 1103.0575
1860 1425267578 1098.5289
1861 1425271484 1100.7891
1862 1425275390 1097.4736
1863 1425279296 1091.5607
1864 1425283203 1089.1803
1865 1425287109 1087.7406
1866 1425291015 1079.9724
1867 1425294921 1079.3414
1868 1425298828 1072.4025
1869 1425302734 1074.5289
1870 1425306640 1064.1875
1871 1425310546 1057.2184
1872 1425314453 1051.9056
1873 1425318359 1043.1263
1874 1425322265 1039.4995
1875 1425326171 1030.4581
1876 1425330078 1023.5692
1877 1425333984 1010.1664
1878 1425337890 1009.2163
1879 1425341796 995.1564
1880 1425345703 986.7571
1881 1425349609 976.6489
1882 1425353515 969.1603
1883 1425357421 958.9171
1884 1425361328 946.4234
1885 1425365234 933.7358
1886 1425369140 922.0668
1887 1425373046 910.4774
1888 1425376953 900.3207
1889 1425380859 887.8813
1890 1425384765 871.6786
1891 1425388671 856.5458
1892 1425392578 841.3806
1893 1425396484 832.5154
1894 1425400390 815.8931
1895 1425404296 805.6994
1896 1425408203 792.3514
1897 1425412109 774.0750
1898 1425416015 758.7720
1899 1425419921 743.3182
1900 1425423828 730.0880
1901 1425427734 714.4927
1902 1425431640 696.5684
1903 1425435546 681.2986
1904 1425439453 666.2310
1905 1425443359 649.2041
1906 1425447265 632.8203
1907 1425451171 617.1931
1908 1425455078 599.6550
1909 1425458984 583.8450
1910 1425462890 567.9956
1911 1425466796 548.2358
1912 1425470703 537.2991
1913 1425474609 518.7783
1914 1425478515 503.8874
1915 1425482421 487.1929
1916 1425486328 470.5055
1917 1425490234 455.4910
1918 1425494140 439.3349
1919 1425498046 424.0786
1920 1425501953 409.1355
1921 1425505859 394.8492
1922 1425509765 380.4980
1923 1425513671 364.1820
1924 1425517578 349.4539
1925 1425521484 335.8819
1926 1425525390 322.2838
1927 1425529296 307.5902
1928 1425533203 294.2663
1929 1425537109 280.6591
1930 1425541015 269.5286
1931 1425544921 256.6673
1932 1425548828 244.3661
1933 1425552734 232.5844
1934 1425556640 221.9290
1935 1425560546 209.5064
1936 1425564453 198.7199
1937 1425568359 187.7809
1938 1425572265 178.2429
1939 1425576171 168.2335
1940 1425580078 159.4070
1941 1425583984 149.5593
1942 1425587890 140.8717
1943 1425591796 131.8798
1944 1425595703 123.5164
1945 1425599609 116.2116
1946 1425603515 108.4657
1947 1425607421 101.5801
1948 1425611328 95.0528
1949 1425615234 88.3844
1950 1425619140 82.2510
1951 1425623046 76.0401
1952 1425626953 70.3655
1953 1425630859 65.3746
1954 1425634765 60.5388
1955 1425638671 55.7297
1956 1425642578 51.3244
1957 1425646484 46.9035
1958 1425650390 42.8911
1959 1425654296 39.3082
1960 1425658203 35.9083
1961 1425662109 32.7512
1962 1425666015 29.6872
1963 1425669921 26.9093
1964 1425673828 24.3637
1965 1425677734 21.8378
1966 1425681640 19.6491
1967 1425685546 17.5682
1968 1425689453 15.7409
1969 1425693359 14.0126
1970 1425697265 12.4237
1971 1425701171 10.9857
1972 1425705078 9.6557
1973 1425708984 8.4740
1974 1425712890 7.3808
1975 1425716796 6.4180
1976 1425720703 5.5590
1977 1425724609 4.7564
1978 1425728515 4.0530
1979 1425732421 3.4250
1980 1425736328 2.8701
1981 1425740234 2.3875
1982 1425744140 1.9658
1983 1425748046 1.6031
1984 1425751953 1.2869
1985 1425755859 1.0219
1986 1425759765 0.7958
1987 1425763671 0.6048
1988 1425767578 0.4509
1989 1425771484 0.3246
1990 1425775390 0.2264
1991 1425779296 0.1519
1992 1425783203 0.0977
1993 1425787109 0.0615
1994 1425791015 0.0403
1995 1425794921 0.0333
1996 1425798828 0.0371
1997 1425802734 0.0505
1998 1425806640 0.0715
1999 1425810546 0.0993
2000 1425814453 0.1318
2001 1425818359 0.1682
2002 1425822265 0.2081
2003 1425826171 0.2497
2004 1425830078 0.2906
2005 1425833984 0.3321
2006 1425837890 0.3766
2007 1425841796 0.4180
2008 1425845703 0.4570
2009 1425849609 0.4990
2010 1425853515 0.5341
2011 1425857421 0.5703
2012 1425861328 0.6032
2013 1425865234 0.6355
2014 1425869140 0.6663
2015 1425873046 0.6896
2016 1425876953 0.7186
2017 1425880859 0.7389
2018 1425884765 0.7572
2019 1425888671 0.7789
2020 1425892578 0.7948
2021 1425896484 0.8102
2022 1425900390 0.8217
2023 1425904296 0.8341
2024 1425908203 0.8427
2025 1425912109 0.8499
2026 1425916015 0.8545
2027 1425919921 0.8567
2028 1425923828 0.8640
2029 1425927734 0.8672
2030 1425931640 0.8664
2031 1425935546 0.8715
2032 1425939453 0.8771
2033 1425943359 0.8767
2034 1425947265 0.8760
2035 1425951171 0.8755
2036 1425955078 0.8750
2037 1425958984 0.8783
2038 1425962890 0.8746
2039 1425966796 0.8737
2040 1425970703 0.8724
2041 1425974609 0.8751
2042 1425978515 0.8757
2043 1425982421 0.8735
2044 1425986328 0.8717
2045 1425990234 0.8712
2046 1425994140 0.8740
2047 1425998046 0.8717
