# File: 20-11-28T181606.hot
# NOTEA     = RSP1A+GPIOLabs Pi #1 On Horn
# NOTEB     = Sdrplay 8 MHz Test
# OBSERVER  = Science Aficionado
# DEVICE    = SDRPlay RSP1A
# DATADIR   = ../data/
# SITE      = RSP1A+GPIOLabs Pi #1 On Horn
# CITY      = Green Bank
# REGION    = West Virginia
# COUNTRY   = US
# TELTYPE   = Bubble Wrap  Horn
# FRAME     = TOPO
# GAIN1     = 0.0
# GAIN2     = 12.0
# GAIN3     = 12.0
# GAIN4     = 0.0
# Count     = 360000
# CenterFreq= 1422000000.0
# Bandwidth = 8000000.0
# Duration  = 157.285447
# DeltaX    = 5859.375
# TSYS      = 200.0
# TRX       = 100.0
# TRMS      = 2.0
# TINT      = 1.0
# KPERC     = 100.0
# GAINFACT  = 1.0
# BUNIT     = Counts
# NCHAN     = 2048
# NSPEC     = 1
# NTIME     = 0
# NSAMPLES  = 0
# EPEAK     = 4.10875183718
# ERMS      = 0.995973393526
# EMJD      = 58568.808999981004 
# REFCHAN   = 1024.0
# REFSAMPL  = 256.0
# NAVE      = 600
# NMEDIAN   = 1024
# Fft_rate  = 5000
# UTC       = 2020-11-28 18:16:06.409870
# SECONDS   =       0.0000000000 
# LST       = 17:29:09.450
# AZ        = 180.0
# EL        = -40.0
# TELLON    = -79:50:22.920
# TELLAT    = +38:25:59.160
# RA        = 06:00:07.710
# DEC       = -88:27:02.000
# GALLON    = 301:13:45.30
# GALLAT    = -27:27:43.10
# ALT_SUN   = +27:59:59.5
# AZ_SUN    = +198:05:25.9
# ETAA      = 0.8
# ETAB      = 0.99
# POLANGLE  = 0.0
# TELSIZEAM = 1.0
# TELSIZEBM = 1.0
# AST_VERS  = 05.01
0000 1418001953 0.8435
0001 1418005859 0.8435
0002 1418009765 0.8450
0003 1418013671 0.8443
0004 1418017578 0.8479
0005 1418021484 0.8515
0006 1418025390 0.8535
0007 1418029296 0.8511
0008 1418033203 0.8565
0009 1418037109 0.8579
0010 1418041015 0.8589
0011 1418044921 0.8643
0012 1418048828 0.8625
0013 1418052734 0.8674
0014 1418056640 0.8673
0015 1418060546 0.8724
0016 1418064453 0.8704
0017 1418068359 0.8705
0018 1418072265 0.8692
0019 1418076171 0.8687
0020 1418080078 0.8670
0021 1418083984 0.8648
0022 1418087890 0.8602
0023 1418091796 0.8532
0024 1418095703 0.8453
0025 1418099609 0.8393
0026 1418103515 0.8266
0027 1418107421 0.8161
0028 1418111328 0.8005
0029 1418115234 0.7889
0030 1418119140 0.7705
0031 1418123046 0.7504
0032 1418126953 0.7224
0033 1418130859 0.6976
0034 1418134765 0.6738
0035 1418138671 0.6447
0036 1418142578 0.6143
0037 1418146484 0.5782
0038 1418150390 0.5416
0039 1418154296 0.5058
0040 1418158203 0.4663
0041 1418162109 0.4253
0042 1418166015 0.3819
0043 1418169921 0.3385
0044 1418173828 0.2963
0045 1418177734 0.2532
0046 1418181640 0.2107
0047 1418185546 0.1708
0048 1418189453 0.1334
0049 1418193359 0.1003
0050 1418197265 0.0721
0051 1418201171 0.0506
0052 1418205078 0.0369
0053 1418208984 0.0329
0054 1418212890 0.0404
0055 1418216796 0.0616
0056 1418220703 0.0986
0057 1418224609 0.1541
0058 1418228515 0.2312
0059 1418232421 0.3308
0060 1418236328 0.4595
0061 1418240234 0.6184
0062 1418244140 0.8146
0063 1418248046 1.0416
0064 1418251953 1.3114
0065 1418255859 1.6387
0066 1418259765 2.0100
0067 1418263671 2.4408
0068 1418267578 2.9345
0069 1418271484 3.5071
0070 1418275390 4.1266
0071 1418279296 4.8619
0072 1418283203 5.6478
0073 1418287109 6.5617
0074 1418291015 7.5389
0075 1418294921 8.6189
0076 1418298828 9.8670
0077 1418302734 11.2082
0078 1418306640 12.7014
0079 1418310546 14.2961
0080 1418314453 16.0972
0081 1418318359 18.0377
0082 1418322265 20.0668
0083 1418326171 22.3683
0084 1418330078 24.8524
0085 1418333984 27.4602
0086 1418337890 30.4638
0087 1418341796 33.4917
0088 1418345703 36.6667
0089 1418349609 40.2456
0090 1418353515 43.8666
0091 1418357421 47.9601
0092 1418361328 52.1495
0093 1418365234 56.8346
0094 1418369140 61.8900
0095 1418373046 66.9307
0096 1418376953 72.2152
0097 1418380859 77.8253
0098 1418384765 84.0361
0099 1418388671 90.4791
0100 1418392578 96.5483
0101 1418396484 103.5580
0102 1418400390 110.8377
0103 1418404296 118.8055
0104 1418408203 126.8176
0105 1418412109 134.4558
0106 1418416015 143.6008
0107 1418419921 152.7646
0108 1418423828 161.7088
0109 1418427734 171.6836
0110 1418431640 182.0815
0111 1418435546 192.5776
0112 1418439453 203.0613
0113 1418443359 214.2752
0114 1418447265 224.4545
0115 1418451171 237.0689
0116 1418455078 249.9145
0117 1418458984 262.2949
0118 1418462890 274.9802
0119 1418466796 287.9837
0120 1418470703 302.3752
0121 1418474609 314.9585
0122 1418478515 329.9486
0123 1418482421 344.8808
0124 1418486328 358.1884
0125 1418490234 372.2621
0126 1418494140 387.7478
0127 1418498046 402.7630
0128 1418501953 417.1949
0129 1418505859 432.6528
0130 1418509765 450.0415
0131 1418513671 465.7003
0132 1418517578 481.6063
0133 1418521484 499.8894
0134 1418525390 516.5766
0135 1418529296 533.1519
0136 1418533203 547.5810
0137 1418537109 564.9414
0138 1418541015 580.4755
0139 1418544921 595.3405
0140 1418548828 612.5568
0141 1418552734 629.1844
0142 1418556640 646.7878
0143 1418560546 664.2548
0144 1418564453 679.5529
0145 1418568359 696.7441
0146 1418572265 713.8533
0147 1418576171 728.3097
0148 1418580078 744.4025
0149 1418583984 763.7277
0150 1418587890 775.0163
0151 1418591796 792.4904
0152 1418595703 807.9512
0153 1418599609 821.0715
0154 1418603515 834.1943
0155 1418607421 850.8917
0156 1418611328 864.2951
0157 1418615234 879.0386
0158 1418619140 897.3065
0159 1418623046 904.1608
0160 1418626953 915.4033
0161 1418630859 931.9954
0162 1418634765 944.8364
0163 1418638671 957.6248
0164 1418642578 969.5944
0165 1418646484 973.6473
0166 1418650390 989.1920
0167 1418654296 999.8040
0168 1418658203 1010.9561
0169 1418662109 1020.1104
0170 1418666015 1031.2760
0171 1418669921 1034.0406
0172 1418673828 1045.5946
0173 1418677734 1051.4257
0174 1418681640 1057.9335
0175 1418685546 1067.7935
0176 1418689453 1078.2212
0177 1418693359 1081.2351
0178 1418697265 1085.7153
0179 1418701171 1094.0338
0180 1418705078 1096.6401
0181 1418708984 1100.0734
0182 1418712890 1108.1858
0183 1418716796 1109.7706
0184 1418720703 1113.2887
0185 1418724609 1116.4683
0186 1418728515 1123.6787
0187 1418732421 1129.9144
0188 1418736328 1125.4274
0189 1418740234 1129.9674
0190 1418744140 1128.1387
0191 1418748046 1129.5673
0192 1418751953 1126.5015
0193 1418755859 1131.1501
0194 1418759765 1129.6429
0195 1418763671 1131.9789
0196 1418767578 1129.8986
0197 1418771484 1136.1094
0198 1418775390 1125.9807
0199 1418779296 1126.8962
0200 1418783203 1124.4467
0201 1418787109 1126.6180
0202 1418791015 1129.1842
0203 1418794921 1123.7209
0204 1418798828 1124.2469
0205 1418802734 1121.5660
0206 1418806640 1118.5251
0207 1418810546 1116.4456
0208 1418814453 1117.0476
0209 1418818359 1110.8190
0210 1418822265 1112.7278
0211 1418826171 1109.3384
0212 1418830078 1106.2966
0213 1418833984 1102.8893
0214 1418837890 1094.0554
0215 1418841796 1091.8608
0216 1418845703 1095.8546
0217 1418849609 1093.2632
0218 1418853515 1087.8903
0219 1418857421 1083.8156
0220 1418861328 1080.0251
0221 1418865234 1077.0631
0222 1418869140 1072.9052
0223 1418873046 1072.6077
0224 1418876953 1068.1760
0225 1418880859 1061.2731
0226 1418884765 1061.2753
0227 1418888671 1059.8492
0228 1418892578 1055.1738
0229 1418896484 1048.1112
0230 1418900390 1050.2013
0231 1418904296 1045.4784
0232 1418908203 1042.0566
0233 1418912109 1036.8055
0234 1418916015 1034.7985
0235 1418919921 1032.6904
0236 1418923828 1030.9271
0237 1418927734 1026.7756
0238 1418931640 1025.7711
0239 1418935546 1019.0474
0240 1418939453 1023.4525
0241 1418943359 1020.6489
0242 1418947265 1018.7286
0243 1418951171 1013.8098
0244 1418955078 1012.1544
0245 1418958984 1010.8074
0246 1418962890 1009.5417
0247 1418966796 1006.6630
0248 1418970703 1007.8776
0249 1418974609 1006.3791
0250 1418978515 1003.6122
0251 1418982421 1004.3671
0252 1418986328 1006.9402
0253 1418990234 1004.0586
0254 1418994140 997.7829
0255 1418998046 999.7896
0256 1419001953 1002.2547
0257 1419005859 996.4232
0258 1419009765 999.2834
0259 1419013671 995.0466
0260 1419017578 996.8232
0261 1419021484 997.7870
0262 1419025390 994.8183
0263 1419029296 994.8516
0264 1419033203 995.6440
0265 1419037109 996.1265
0266 1419041015 994.7380
0267 1419044921 997.7992
0268 1419048828 994.2380
0269 1419052734 995.9692
0270 1419056640 996.4012
0271 1419060546 996.2578
0272 1419064453 998.5003
0273 1419068359 997.4554
0274 1419072265 997.8492
0275 1419076171 998.9667
0276 1419080078 998.6456
0277 1419083984 1006.0037
0278 1419087890 1002.3313
0279 1419091796 999.9626
0280 1419095703 1006.4162
0281 1419099609 1007.5455
0282 1419103515 1006.2991
0283 1419107421 1007.2133
0284 1419111328 1007.4819
0285 1419115234 1010.3672
0286 1419119140 1015.6191
0287 1419123046 1011.2075
0288 1419126953 1013.9172
0289 1419130859 1014.3470
0290 1419134765 1020.7121
0291 1419138671 1020.6854
0292 1419142578 1017.4843
0293 1419146484 1020.7658
0294 1419150390 1020.5225
0295 1419154296 1022.8599
0296 1419158203 1024.8020
0297 1419162109 1028.1152
0298 1419166015 1027.7264
0299 1419169921 1031.0664
0300 1419173828 1034.6689
0301 1419177734 1033.4445
0302 1419181640 1034.8066
0303 1419185546 1034.1039
0304 1419189453 1035.9031
0305 1419193359 1037.0343
0306 1419197265 1040.8239
0307 1419201171 1044.2819
0308 1419205078 1041.5587
0309 1419208984 1045.4624
0310 1419212890 1047.8269
0311 1419216796 1050.1705
0312 1419220703 1050.5852
0313 1419224609 1050.6570
0314 1419228515 1051.4064
0315 1419232421 1049.3358
0316 1419236328 1050.5028
0317 1419240234 1052.8248
0318 1419244140 1056.9045
0319 1419248046 1054.6664
0320 1419251953 1057.9896
0321 1419255859 1059.1005
0322 1419259765 1058.8767
0323 1419263671 1058.3110
0324 1419267578 1059.1024
0325 1419271484 1062.5355
0326 1419275390 1059.9182
0327 1419279296 1060.0663
0328 1419283203 1063.5938
0329 1419287109 1063.1814
0330 1419291015 1064.3243
0331 1419294921 1067.4160
0332 1419298828 1063.2651
0333 1419302734 1064.9012
0334 1419306640 1065.3716
0335 1419310546 1067.8522
0336 1419314453 1070.3352
0337 1419318359 1070.4723
0338 1419322265 1070.4573
0339 1419326171 1067.9346
0340 1419330078 1069.0226
0341 1419333984 1070.5723
0342 1419337890 1071.4697
0343 1419341796 1068.7091
0344 1419345703 1069.2072
0345 1419349609 1071.4520
0346 1419353515 1068.8396
0347 1419357421 1070.6610
0348 1419361328 1071.8616
0349 1419365234 1073.9905
0350 1419369140 1072.7472
0351 1419373046 1073.7483
0352 1419376953 1072.5571
0353 1419380859 1069.2787
0354 1419384765 1072.1912
0355 1419388671 1067.9581
0356 1419392578 1070.4713
0357 1419396484 1071.2256
0358 1419400390 1072.9858
0359 1419404296 1076.6841
0360 1419408203 1072.1180
0361 1419412109 1073.9528
0362 1419416015 1070.5759
0363 1419419921 1075.0497
0364 1419423828 1077.7325
0365 1419427734 1074.9097
0366 1419431640 1074.3630
0367 1419435546 1075.7822
0368 1419439453 1074.6855
0369 1419443359 1072.4006
0370 1419447265 1074.8389
0371 1419451171 1074.3035
0372 1419455078 1076.2343
0373 1419458984 1080.2803
0374 1419462890 1078.1263
0375 1419466796 1076.1661
0376 1419470703 1079.1294
0377 1419474609 1080.2960
0378 1419478515 1075.9415
0379 1419482421 1072.9767
0380 1419486328 1076.0463
0381 1419490234 1075.4940
0382 1419494140 1073.6086
0383 1419498046 1074.3977
0384 1419501953 1075.5389
0385 1419505859 1075.1085
0386 1419509765 1073.2468
0387 1419513671 1078.1481
0388 1419517578 1080.4500
0389 1419521484 1075.4879
0390 1419525390 1077.4240
0391 1419529296 1079.4968
0392 1419533203 1077.4547
0393 1419537109 1077.9633
0394 1419541015 1076.6147
0395 1419544921 1076.9105
0396 1419548828 1075.1350
0397 1419552734 1073.9235
0398 1419556640 1074.7422
0399 1419560546 1079.5419
0400 1419564453 1074.0505
0401 1419568359 1075.3954
0402 1419572265 1077.0961
0403 1419576171 1078.3401
0404 1419580078 1077.0853
0405 1419583984 1079.8160
0406 1419587890 1077.1840
0407 1419591796 1078.7101
0408 1419595703 1077.6436
0409 1419599609 1078.2296
0410 1419603515 1076.9963
0411 1419607421 1082.0298
0412 1419611328 1081.6821
0413 1419615234 1076.1423
0414 1419619140 1074.9597
0415 1419623046 1077.8862
0416 1419626953 1076.7107
0417 1419630859 1076.3621
0418 1419634765 1075.7159
0419 1419638671 1075.4415
0420 1419642578 1072.3219
0421 1419646484 1072.0485
0422 1419650390 1075.3893
0423 1419654296 1077.3850
0424 1419658203 1071.9382
0425 1419662109 1071.0909
0426 1419666015 1069.8317
0427 1419669921 1074.2262
0428 1419673828 1071.8026
0429 1419677734 1072.5326
0430 1419681640 1067.4648
0431 1419685546 1069.4946
0432 1419689453 1075.0359
0433 1419693359 1065.6819
0434 1419697265 1068.7820
0435 1419701171 1062.7041
0436 1419705078 1065.6123
0437 1419708984 1062.6346
0438 1419712890 1064.9977
0439 1419716796 1063.7926
0440 1419720703 1062.4850
0441 1419724609 1063.9075
0442 1419728515 1063.1781
0443 1419732421 1062.4769
0444 1419736328 1058.9995
0445 1419740234 1055.1567
0446 1419744140 1058.4663
0447 1419748046 1057.1650
0448 1419751953 1056.5786
0449 1419755859 1053.3036
0450 1419759765 1050.4562
0451 1419763671 1055.1511
0452 1419767578 1049.0447
0453 1419771484 1050.6118
0454 1419775390 1052.1970
0455 1419779296 1052.0817
0456 1419783203 1047.8142
0457 1419787109 1050.8236
0458 1419791015 1047.5319
0459 1419794921 1044.0280
0460 1419798828 1043.1130
0461 1419802734 1044.6434
0462 1419806640 1045.7635
0463 1419810546 1044.1288
0464 1419814453 1040.6754
0465 1419818359 1040.0287
0466 1419822265 1038.2246
0467 1419826171 1042.7637
0468 1419830078 1037.4628
0469 1419833984 1033.2501
0470 1419837890 1029.7987
0471 1419841796 1032.4613
0472 1419845703 1031.0228
0473 1419849609 1029.3300
0474 1419853515 1029.1223
0475 1419857421 1026.1639
0476 1419861328 1032.0690
0477 1419865234 1030.5095
0478 1419869140 1027.5881
0479 1419873046 1026.5679
0480 1419876953 1025.5582
0481 1419880859 1022.5886
0482 1419884765 1021.1351
0483 1419888671 1022.6973
0484 1419892578 1028.4885
0485 1419896484 1022.0190
0486 1419900390 1026.0983
0487 1419904296 1024.9974
0488 1419908203 1022.5618
0489 1419912109 1021.2408
0490 1419916015 1023.2447
0491 1419919921 1020.6562
0492 1419923828 1019.7099
0493 1419927734 1019.2352
0494 1419931640 1020.0125
0495 1419935546 1022.3266
0496 1419939453 1014.1260
0497 1419943359 1013.5622
0498 1419947265 1021.6911
0499 1419951171 1019.7247
0500 1419955078 1020.2824
0501 1419958984 1019.9915
0502 1419962890 1015.1068
0503 1419966796 1015.7890
0504 1419970703 1015.3334
0505 1419974609 1020.6194
0506 1419978515 1017.3403
0507 1419982421 1017.6217
0508 1419986328 1014.7723
0509 1419990234 1013.6271
0510 1419994140 1017.4397
0511 1419998046 1018.5670
0512 1420001953 1015.0236
0513 1420005859 1013.1053
0514 1420009765 1019.9267
0515 1420013671 1015.7264
0516 1420017578 1018.0208
0517 1420021484 1019.8765
0518 1420025390 1017.7644
0519 1420029296 1016.3038
0520 1420033203 1017.5207
0521 1420037109 1017.7396
0522 1420041015 1014.7174
0523 1420044921 1016.9310
0524 1420048828 1017.7911
0525 1420052734 1015.1682
0526 1420056640 1015.7181
0527 1420060546 1021.5387
0528 1420064453 1014.5677
0529 1420068359 1019.0032
0530 1420072265 1016.2947
0531 1420076171 1016.1562
0532 1420080078 1017.1241
0533 1420083984 1015.2895
0534 1420087890 1020.8613
0535 1420091796 1016.5425
0536 1420095703 1021.1012
0537 1420099609 1020.8990
0538 1420103515 1019.7860
0539 1420107421 1020.7014
0540 1420111328 1023.2551
0541 1420115234 1018.0502
0542 1420119140 1017.0591
0543 1420123046 1016.7477
0544 1420126953 1016.4951
0545 1420130859 1018.2013
0546 1420134765 1016.7794
0547 1420138671 1018.2617
0548 1420142578 1020.1128
0549 1420146484 1020.4346
0550 1420150390 1019.2783
0551 1420154296 1019.7848
0552 1420158203 1019.6040
0553 1420162109 1018.3300
0554 1420166015 1019.9718
0555 1420169921 1018.1113
0556 1420173828 1019.3519
0557 1420177734 1015.5501
0558 1420181640 1014.8895
0559 1420185546 1016.1522
0560 1420189453 1013.4225
0561 1420193359 1017.7231
0562 1420197265 1015.3015
0563 1420201171 1018.9062
0564 1420205078 1017.8577
0565 1420208984 1015.8362
0566 1420212890 1017.4733
0567 1420216796 1012.3815
0568 1420220703 1013.4301
0569 1420224609 1015.7253
0570 1420228515 1016.6021
0571 1420232421 1013.8359
0572 1420236328 1009.2181
0573 1420240234 1011.3499
0574 1420244140 1013.2372
0575 1420248046 1009.5591
0576 1420251953 1011.7703
0577 1420255859 1010.0648
0578 1420259765 1008.1580
0579 1420263671 1011.4648
0580 1420267578 1007.0604
0581 1420271484 1006.9132
0582 1420275390 1003.9019
0583 1420279296 1004.7964
0584 1420283203 1007.7098
0585 1420287109 1001.5916
0586 1420291015 1005.0719
0587 1420294921 1009.2556
0588 1420298828 1002.8436
0589 1420302734 1001.8911
0590 1420306640 1001.8628
0591 1420310546 1000.6484
0592 1420314453 1001.1309
0593 1420318359 1001.9895
0594 1420322265 1004.9446
0595 1420326171 999.2830
0596 1420330078 1000.6127
0597 1420333984 1001.0927
0598 1420337890 996.6564
0599 1420341796 997.0793
0600 1420345703 998.5436
0601 1420349609 994.2510
0602 1420353515 995.6708
0603 1420357421 999.0009
0604 1420361328 996.8029
0605 1420365234 998.4490
0606 1420369140 993.9136
0607 1420373046 994.0467
0608 1420376953 990.5051
0609 1420380859 988.8796
0610 1420384765 992.8683
0611 1420388671 993.8389
0612 1420392578 989.8341
0613 1420396484 990.2500
0614 1420400390 990.8087
0615 1420404296 988.7595
0616 1420408203 992.2375
0617 1420412109 991.7654
0618 1420416015 987.0761
0619 1420419921 985.8956
0620 1420423828 985.6699
0621 1420427734 988.2103
0622 1420431640 988.7020
0623 1420435546 987.0756
0624 1420439453 986.3120
0625 1420443359 982.7949
0626 1420447265 986.2480
0627 1420451171 983.2990
0628 1420455078 983.0640
0629 1420458984 982.6481
0630 1420462890 981.8604
0631 1420466796 982.4070
0632 1420470703 980.1671
0633 1420474609 982.6171
0634 1420478515 986.3052
0635 1420482421 979.4935
0636 1420486328 985.7922
0637 1420490234 982.5488
0638 1420494140 984.0508
0639 1420498046 982.4121
0640 1420501953 983.0884
0641 1420505859 984.3306
0642 1420509765 978.6342
0643 1420513671 978.6413
0644 1420517578 981.5705
0645 1420521484 980.8754
0646 1420525390 981.5466
0647 1420529296 982.4222
0648 1420533203 982.1533
0649 1420537109 987.6140
0650 1420541015 984.6740
0651 1420544921 982.3785
0652 1420548828 984.8871
0653 1420552734 980.0140
0654 1420556640 983.8234
0655 1420560546 986.7256
0656 1420564453 980.4265
0657 1420568359 980.4391
0658 1420572265 983.1234
0659 1420576171 985.5101
0660 1420580078 985.0111
0661 1420583984 988.8868
0662 1420587890 983.3627
0663 1420591796 981.5443
0664 1420595703 984.8456
0665 1420599609 985.6523
0666 1420603515 980.9172
0667 1420607421 982.7839
0668 1420611328 985.4224
0669 1420615234 983.6882
0670 1420619140 981.1130
0671 1420623046 984.0809
0672 1420626953 982.0580
0673 1420630859 982.6602
0674 1420634765 982.6434
0675 1420638671 983.6717
0676 1420642578 984.3657
0677 1420646484 979.5327
0678 1420650390 983.6749
0679 1420654296 976.4303
0680 1420658203 978.2721
0681 1420662109 981.0408
0682 1420666015 985.0561
0683 1420669921 981.4388
0684 1420673828 982.0157
0685 1420677734 982.0729
0686 1420681640 979.3605
0687 1420685546 981.1064
0688 1420689453 979.8638
0689 1420693359 984.2143
0690 1420697265 982.3272
0691 1420701171 977.9784
0692 1420705078 976.6258
0693 1420708984 977.8318
0694 1420712890 978.8016
0695 1420716796 980.8433
0696 1420720703 977.6008
0697 1420724609 976.5965
0698 1420728515 978.8488
0699 1420732421 977.1843
0700 1420736328 977.6721
0701 1420740234 975.3724
0702 1420744140 968.9307
0703 1420748046 971.5212
0704 1420751953 969.3425
0705 1420755859 972.3794
0706 1420759765 971.1962
0707 1420763671 976.1323
0708 1420767578 974.2017
0709 1420771484 968.6135
0710 1420775390 970.7476
0711 1420779296 971.2339
0712 1420783203 968.8305
0713 1420787109 964.4481
0714 1420791015 966.3600
0715 1420794921 968.7363
0716 1420798828 965.7913
0717 1420802734 968.1338
0718 1420806640 966.2823
0719 1420810546 968.2483
0720 1420814453 969.0082
0721 1420818359 967.3728
0722 1420822265 964.4340
0723 1420826171 963.5476
0724 1420830078 965.6768
0725 1420833984 963.2526
0726 1420837890 965.3884
0727 1420841796 962.8904
0728 1420845703 963.1312
0729 1420849609 962.4301
0730 1420853515 958.5416
0731 1420857421 961.3799
0732 1420861328 961.0632
0733 1420865234 959.3747
0734 1420869140 961.1625
0735 1420873046 965.7540
0736 1420876953 966.5614
0737 1420880859 960.6813
0738 1420884765 964.0607
0739 1420888671 961.9330
0740 1420892578 962.7518
0741 1420896484 962.0719
0742 1420900390 961.7767
0743 1420904296 963.6666
0744 1420908203 967.1606
0745 1420912109 962.1116
0746 1420916015 965.0060
0747 1420919921 966.5803
0748 1420923828 963.9610
0749 1420927734 965.6188
0750 1420931640 963.4312
0751 1420935546 965.1904
0752 1420939453 964.9339
0753 1420943359 966.5588
0754 1420947265 969.8322
0755 1420951171 970.2178
0756 1420955078 965.4029
0757 1420958984 971.3060
0758 1420962890 971.7856
0759 1420966796 971.6477
0760 1420970703 969.5796
0761 1420974609 972.1641
0762 1420978515 975.3671
0763 1420982421 974.9676
0764 1420986328 979.8855
0765 1420990234 975.3734
0766 1420994140 976.7590
0767 1420998046 977.4522
0768 1421001953 978.0029
0769 1421005859 978.8754
0770 1421009765 978.3840
0771 1421013671 980.4661
0772 1421017578 982.0599
0773 1421021484 981.3519
0774 1421025390 985.7659
0775 1421029296 987.7093
0776 1421033203 989.2241
0777 1421037109 990.9543
0778 1421041015 987.5756
0779 1421044921 990.0987
0780 1421048828 991.6434
0781 1421052734 991.0222
0782 1421056640 990.9076
0783 1421060546 995.3625
0784 1421064453 994.3284
0785 1421068359 997.5246
0786 1421072265 996.5466
0787 1421076171 997.1731
0788 1421080078 1002.3206
0789 1421083984 999.9604
0790 1421087890 1001.6368
0791 1421091796 1000.3920
0792 1421095703 1006.3475
0793 1421099609 999.3514
0794 1421103515 1001.3356
0795 1421107421 1005.6207
0796 1421111328 1007.3093
0797 1421115234 1005.7227
0798 1421119140 1007.8949
0799 1421123046 1006.7665
0800 1421126953 1008.9058
0801 1421130859 1009.3839
0802 1421134765 1006.4919
0803 1421138671 1008.8339
0804 1421142578 1014.6793
0805 1421146484 1013.4003
0806 1421150390 1014.0212
0807 1421154296 1012.5732
0808 1421158203 1013.4624
0809 1421162109 1014.2653
0810 1421166015 1008.7200
0811 1421169921 1007.8869
0812 1421173828 1009.6171
0813 1421177734 1011.9730
0814 1421181640 1012.9812
0815 1421185546 1017.4459
0816 1421189453 1015.5896
0817 1421193359 1016.8538
0818 1421197265 1009.1609
0819 1421201171 1015.3170
0820 1421205078 1014.6996
0821 1421208984 1011.2192
0822 1421212890 1015.4315
0823 1421216796 1011.2222
0824 1421220703 1012.1668
0825 1421224609 1013.4150
0826 1421228515 1013.2898
0827 1421232421 1006.5964
0828 1421236328 1009.8177
0829 1421240234 1009.5586
0830 1421244140 1005.3486
0831 1421248046 1009.2595
0832 1421251953 1006.5415
0833 1421255859 1009.8843
0834 1421259765 1003.5092
0835 1421263671 1001.7130
0836 1421267578 1003.4962
0837 1421271484 1001.4257
0838 1421275390 1000.7717
0839 1421279296 1001.0240
0840 1421283203 999.3355
0841 1421287109 998.2929
0842 1421291015 995.8403
0843 1421294921 998.0947
0844 1421298828 995.3497
0845 1421302734 996.8207
0846 1421306640 993.5090
0847 1421310546 994.2997
0848 1421314453 988.6880
0849 1421318359 995.1302
0850 1421322265 991.2496
0851 1421326171 990.2628
0852 1421330078 989.7841
0853 1421333984 989.9665
0854 1421337890 990.0369
0855 1421341796 987.6861
0856 1421345703 989.5718
0857 1421349609 984.9402
0858 1421353515 983.0022
0859 1421357421 985.3752
0860 1421361328 981.1550
0861 1421365234 980.6533
0862 1421369140 979.2829
0863 1421373046 976.4140
0864 1421376953 983.2011
0865 1421380859 981.1451
0866 1421384765 978.3075
0867 1421388671 976.7161
0868 1421392578 978.7349
0869 1421396484 977.0852
0870 1421400390 977.9360
0871 1421404296 973.4990
0872 1421408203 977.3925
0873 1421412109 974.1435
0874 1421416015 974.1174
0875 1421419921 973.8110
0876 1421423828 973.2416
0877 1421427734 971.6357
0878 1421431640 974.6465
0879 1421435546 973.1068
0880 1421439453 975.6921
0881 1421443359 972.5918
0882 1421447265 976.6862
0883 1421451171 978.3250
0884 1421455078 978.7729
0885 1421458984 974.5534
0886 1421462890 977.8290
0887 1421466796 976.2038
0888 1421470703 975.7269
0889 1421474609 973.7092
0890 1421478515 975.4357
0891 1421482421 972.7501
0892 1421486328 979.7477
0893 1421490234 979.1710
0894 1421494140 982.0874
0895 1421498046 980.0316
0896 1421501953 978.7455
0897 1421505859 981.3099
0898 1421509765 980.7659
0899 1421513671 985.6935
0900 1421517578 982.3007
0901 1421521484 985.3867
0902 1421525390 990.6862
0903 1421529296 987.5682
0904 1421533203 987.2220
0905 1421537109 988.6263
0906 1421541015 989.9965
0907 1421544921 990.8050
0908 1421548828 990.6811
0909 1421552734 992.1334
0910 1421556640 996.6728
0911 1421560546 995.4359
0912 1421564453 997.0291
0913 1421568359 997.8135
0914 1421572265 996.6251
0915 1421576171 996.9495
0916 1421580078 1002.3934
0917 1421583984 1004.1236
0918 1421587890 1004.0144
0919 1421591796 1002.5011
0920 1421595703 1011.0187
0921 1421599609 1008.0449
0922 1421603515 1006.0702
0923 1421607421 1008.4955
0924 1421611328 1011.3120
0925 1421615234 1014.1176
0926 1421619140 1009.7718
0927 1421623046 1013.9063
0928 1421626953 1013.9220
0929 1421630859 1016.6579
0930 1421634765 1018.2990
0931 1421638671 1018.4168
0932 1421642578 1024.2727
0933 1421646484 1025.3912
0934 1421650390 1019.1806
0935 1421654296 1029.0479
0936 1421658203 1027.2559
0937 1421662109 1023.0231
0938 1421666015 1025.5143
0939 1421669921 1028.0299
0940 1421673828 1026.2781
0941 1421677734 1032.6528
0942 1421681640 1030.5404
0943 1421685546 1030.5889
0944 1421689453 1028.7402
0945 1421693359 1030.1957
0946 1421697265 1029.3092
0947 1421701171 1035.0291
0948 1421705078 1037.2113
0949 1421708984 1032.9761
0950 1421712890 1035.0033
0951 1421716796 1032.5438
0952 1421720703 1034.2256
0953 1421724609 1033.2777
0954 1421728515 1034.3583
0955 1421732421 1032.5430
0956 1421736328 1027.6942
0957 1421740234 1034.6072
0958 1421744140 1030.9954
0959 1421748046 1032.4865
0960 1421751953 1034.2515
0961 1421755859 1030.2811
0962 1421759765 1032.7103
0963 1421763671 1029.8954
0964 1421767578 1027.9972
0965 1421771484 1027.7834
0966 1421775390 1025.9911
0967 1421779296 1024.0688
0968 1421783203 1024.9572
0969 1421787109 1026.4484
0970 1421791015 1027.7748
0971 1421794921 1024.5551
0972 1421798828 1024.3569
0973 1421802734 1020.9705
0974 1421806640 1022.7728
0975 1421810546 1016.6309
0976 1421814453 1021.3691
0977 1421818359 1017.8964
0978 1421822265 1016.9181
0979 1421826171 1016.6500
0980 1421830078 1014.9966
0981 1421833984 1011.4424
0982 1421837890 1010.6078
0983 1421841796 1013.0087
0984 1421845703 1009.0297
0985 1421849609 1007.2662
0986 1421853515 1008.6812
0987 1421857421 1008.1882
0988 1421861328 1005.9131
0989 1421865234 1006.3776
0990 1421869140 1000.8439
0991 1421873046 1002.6550
0992 1421876953 1004.4939
0993 1421880859 998.3782
0994 1421884765 1000.1466
0995 1421888671 997.2326
0996 1421892578 995.1298
0997 1421896484 994.6290
0998 1421900390 996.1699
0999 1421904296 991.0097
1000 1421908203 990.4532
1001 1421912109 987.8843
1002 1421916015 987.2621
1003 1421919921 987.9247
1004 1421923828 989.7186
1005 1421927734 986.2994
1006 1421931640 977.1077
1007 1421935546 981.8629
1008 1421939453 984.8891
1009 1421943359 980.4835
1010 1421947265 980.2326
1011 1421951171 978.6496
1012 1421955078 979.5423
1013 1421958984 977.1800
1014 1421962890 980.7927
1015 1421966796 980.8900
1016 1421970703 975.3178
1017 1421974609 977.8931
1018 1421978515 978.9039
1019 1421982421 977.8610
1020 1421986328 980.7868
1021 1421990234 979.7958
1022 1421994140 983.6353
1023 1421998046 1013.2584
1024 1422001953 1093.3138
1025 1422005859 1012.5889
1026 1422009765 980.0157
1027 1422013671 977.4860
1028 1422017578 977.5596
1029 1422021484 974.0309
1030 1422025390 979.8406
1031 1422029296 980.7458
1032 1422033203 976.4506
1033 1422037109 979.5560
1034 1422041015 979.2150
1035 1422044921 978.7423
1036 1422048828 976.3669
1037 1422052734 976.3482
1038 1422056640 975.5909
1039 1422060546 980.1477
1040 1422064453 980.9740
1041 1422068359 984.1849
1042 1422072265 979.4730
1043 1422076171 984.4082
1044 1422080078 982.1669
1045 1422083984 985.9996
1046 1422087890 983.1254
1047 1422091796 979.9871
1048 1422095703 987.8700
1049 1422099609 985.4971
1050 1422103515 990.3253
1051 1422107421 987.6159
1052 1422111328 991.5575
1053 1422115234 993.3779
1054 1422119140 989.9926
1055 1422123046 990.7131
1056 1422126953 995.0360
1057 1422130859 995.9519
1058 1422134765 993.0526
1059 1422138671 998.2079
1060 1422142578 1000.3033
1061 1422146484 1000.0399
1062 1422150390 1000.1923
1063 1422154296 1002.1501
1064 1422158203 1003.0390
1065 1422162109 1003.5649
1066 1422166015 1003.4079
1067 1422169921 1006.8359
1068 1422173828 1008.9325
1069 1422177734 1012.8174
1070 1422181640 1009.0156
1071 1422185546 1011.0244
1072 1422189453 1013.9157
1073 1422193359 1015.5005
1074 1422197265 1013.0532
1075 1422201171 1010.9251
1076 1422205078 1012.8246
1077 1422208984 1011.9115
1078 1422212890 1016.6420
1079 1422216796 1014.7266
1080 1422220703 1019.1691
1081 1422224609 1017.0152
1082 1422228515 1017.1331
1083 1422232421 1018.5737
1084 1422236328 1020.0351
1085 1422240234 1019.5410
1086 1422244140 1020.6353
1087 1422248046 1021.7867
1088 1422251953 1018.2767
1089 1422255859 1019.0582
1090 1422259765 1022.9780
1091 1422263671 1020.5026
1092 1422267578 1022.8260
1093 1422271484 1022.8275
1094 1422275390 1025.3085
1095 1422279296 1019.5032
1096 1422283203 1023.4694
1097 1422287109 1020.5723
1098 1422291015 1022.0059
1099 1422294921 1022.0217
1100 1422298828 1017.2266
1101 1422302734 1019.6176
1102 1422306640 1020.1199
1103 1422310546 1021.1613
1104 1422314453 1020.8479
1105 1422318359 1014.1833
1106 1422322265 1017.5851
1107 1422326171 1014.4911
1108 1422330078 1014.6843
1109 1422333984 1013.8085
1110 1422337890 1016.7173
1111 1422341796 1011.6758
1112 1422345703 1012.3563
1113 1422349609 1010.8090
1114 1422353515 1012.2621
1115 1422357421 1008.8572
1116 1422361328 1007.4222
1117 1422365234 1010.6705
1118 1422369140 1000.9099
1119 1422373046 1005.8333
1120 1422376953 1002.8307
1121 1422380859 1003.2295
1122 1422384765 999.2149
1123 1422388671 998.3981
1124 1422392578 1001.3337
1125 1422396484 998.0426
1126 1422400390 994.1437
1127 1422404296 994.6617
1128 1422408203 991.5898
1129 1422412109 987.3275
1130 1422416015 991.2383
1131 1422419921 990.8312
1132 1422423828 986.8746
1133 1422427734 987.1348
1134 1422431640 985.0972
1135 1422435546 982.8158
1136 1422439453 982.3049
1137 1422443359 983.4631
1138 1422447265 980.7601
1139 1422451171 978.6356
1140 1422455078 977.6666
1141 1422458984 975.7751
1142 1422462890 974.3001
1143 1422466796 974.8173
1144 1422470703 976.2707
1145 1422474609 974.4104
1146 1422478515 969.5175
1147 1422482421 970.6036
1148 1422486328 969.6030
1149 1422490234 969.2156
1150 1422494140 969.7672
1151 1422498046 966.5613
1152 1422501953 966.1302
1153 1422505859 965.5034
1154 1422509765 964.3591
1155 1422513671 963.9768
1156 1422517578 961.6641
1157 1422521484 965.4345
1158 1422525390 963.4905
1159 1422529296 960.1268
1160 1422533203 962.8345
1161 1422537109 958.7394
1162 1422541015 962.4874
1163 1422544921 962.9429
1164 1422548828 961.1784
1165 1422552734 955.6467
1166 1422556640 961.3047
1167 1422560546 963.0690
1168 1422564453 960.0383
1169 1422568359 963.0488
1170 1422572265 957.9438
1171 1422576171 956.3500
1172 1422580078 958.7599
1173 1422583984 958.4903
1174 1422587890 963.4572
1175 1422591796 960.5386
1176 1422595703 958.0916
1177 1422599609 961.9219
1178 1422603515 959.1068
1179 1422607421 963.2858
1180 1422611328 966.9318
1181 1422615234 962.1703
1182 1422619140 962.5031
1183 1422623046 961.9546
1184 1422626953 964.9591
1185 1422630859 967.0922
1186 1422634765 968.2543
1187 1422638671 969.6135
1188 1422642578 968.6162
1189 1422646484 965.1760
1190 1422650390 965.6019
1191 1422654296 969.2700
1192 1422658203 972.2378
1193 1422662109 970.9244
1194 1422666015 971.6879
1195 1422669921 972.2081
1196 1422673828 971.2704
1197 1422677734 982.6422
1198 1422681640 980.4127
1199 1422685546 977.0668
1200 1422689453 980.9724
1201 1422693359 978.0834
1202 1422697265 978.9842
1203 1422701171 983.7448
1204 1422705078 978.6651
1205 1422708984 979.0135
1206 1422712890 980.0788
1207 1422716796 979.9709
1208 1422720703 979.8599
1209 1422724609 986.9931
1210 1422728515 982.7766
1211 1422732421 986.8351
1212 1422736328 984.3644
1213 1422740234 985.5955
1214 1422744140 988.0965
1215 1422748046 988.3707
1216 1422751953 989.4097
1217 1422755859 990.1352
1218 1422759765 992.3914
1219 1422763671 992.6702
1220 1422767578 993.8608
1221 1422771484 993.5807
1222 1422775390 994.3557
1223 1422779296 994.0434
1224 1422783203 993.4835
1225 1422787109 991.1165
1226 1422791015 996.0734
1227 1422794921 992.6103
1228 1422798828 994.5172
1229 1422802734 993.1108
1230 1422806640 996.7469
1231 1422810546 994.4258
1232 1422814453 998.5612
1233 1422818359 993.3151
1234 1422822265 993.6073
1235 1422826171 993.2497
1236 1422830078 993.3207
1237 1422833984 993.9052
1238 1422837890 993.6009
1239 1422841796 995.3138
1240 1422845703 996.3268
1241 1422849609 999.3576
1242 1422853515 997.6050
1243 1422857421 992.8259
1244 1422861328 990.9046
1245 1422865234 993.0499
1246 1422869140 993.8944
1247 1422873046 994.0912
1248 1422876953 988.5662
1249 1422880859 990.4504
1250 1422884765 990.6082
1251 1422888671 992.0804
1252 1422892578 991.9148
1253 1422896484 989.6157
1254 1422900390 990.9545
1255 1422904296 984.9489
1256 1422908203 983.5424
1257 1422912109 982.9717
1258 1422916015 981.4423
1259 1422919921 983.8029
1260 1422923828 980.1514
1261 1422927734 978.5630
1262 1422931640 981.4205
1263 1422935546 976.9763
1264 1422939453 974.7870
1265 1422943359 973.5191
1266 1422947265 976.8385
1267 1422951171 970.1568
1268 1422955078 972.8480
1269 1422958984 974.5530
1270 1422962890 972.5613
1271 1422966796 966.2338
1272 1422970703 970.5348
1273 1422974609 971.2649
1274 1422978515 964.7911
1275 1422982421 965.5320
1276 1422986328 966.6429
1277 1422990234 967.2348
1278 1422994140 966.6287
1279 1422998046 963.6220
1280 1423001953 964.0192
1281 1423005859 962.2974
1282 1423009765 962.5398
1283 1423013671 959.0684
1284 1423017578 958.3920
1285 1423021484 959.6617
1286 1423025390 959.0596
1287 1423029296 957.8987
1288 1423033203 955.3095
1289 1423037109 954.0952
1290 1423041015 954.4783
1291 1423044921 953.0662
1292 1423048828 949.8535
1293 1423052734 951.8600
1294 1423056640 951.7294
1295 1423060546 949.4761
1296 1423064453 945.8901
1297 1423068359 948.0539
1298 1423072265 951.0234
1299 1423076171 945.4183
1300 1423080078 946.4040
1301 1423083984 946.2419
1302 1423087890 947.1993
1303 1423091796 948.5232
1304 1423095703 944.7568
1305 1423099609 947.1574
1306 1423103515 946.5443
1307 1423107421 943.1393
1308 1423111328 943.4185
1309 1423115234 944.5404
1310 1423119140 944.1459
1311 1423123046 945.0890
1312 1423126953 941.8853
1313 1423130859 945.8524
1314 1423134765 946.4237
1315 1423138671 946.9309
1316 1423142578 947.7928
1317 1423146484 945.8715
1318 1423150390 939.9979
1319 1423154296 945.8695
1320 1423158203 946.2821
1321 1423162109 946.6346
1322 1423166015 946.1201
1323 1423169921 945.0753
1324 1423173828 940.0867
1325 1423177734 947.2620
1326 1423181640 945.5204
1327 1423185546 945.9184
1328 1423189453 947.6586
1329 1423193359 945.7441
1330 1423197265 946.1272
1331 1423201171 950.1457
1332 1423205078 945.6046
1333 1423208984 945.6029
1334 1423212890 948.7950
1335 1423216796 949.0162
1336 1423220703 949.1669
1337 1423224609 948.4630
1338 1423228515 948.7390
1339 1423232421 947.4224
1340 1423236328 951.0477
1341 1423240234 951.8992
1342 1423244140 951.0828
1343 1423248046 951.1786
1344 1423251953 952.6974
1345 1423255859 953.5147
1346 1423259765 955.2189
1347 1423263671 949.1035
1348 1423267578 947.6946
1349 1423271484 955.5418
1350 1423275390 954.2604
1351 1423279296 957.2070
1352 1423283203 955.9904
1353 1423287109 956.8267
1354 1423291015 957.1148
1355 1423294921 953.6477
1356 1423298828 956.0455
1357 1423302734 955.8484
1358 1423306640 955.6295
1359 1423310546 957.2470
1360 1423314453 957.0347
1361 1423318359 958.5485
1362 1423322265 960.5438
1363 1423326171 963.5342
1364 1423330078 959.5886
1365 1423333984 962.8583
1366 1423337890 960.2560
1367 1423341796 958.4984
1368 1423345703 960.5901
1369 1423349609 961.2621
1370 1423353515 962.2025
1371 1423357421 959.9865
1372 1423361328 958.3472
1373 1423365234 960.1954
1374 1423369140 960.0913
1375 1423373046 960.6447
1376 1423376953 958.4431
1377 1423380859 958.3552
1378 1423384765 960.1149
1379 1423388671 961.3132
1380 1423392578 959.1127
1381 1423396484 963.3212
1382 1423400390 961.3446
1383 1423404296 960.5563
1384 1423408203 961.2365
1385 1423412109 963.3655
1386 1423416015 957.7238
1387 1423419921 955.1567
1388 1423423828 959.9352
1389 1423427734 961.7598
1390 1423431640 959.6550
1391 1423435546 960.9460
1392 1423439453 955.2443
1393 1423443359 958.2167
1394 1423447265 958.1772
1395 1423451171 958.2715
1396 1423455078 958.9136
1397 1423458984 960.2010
1398 1423462890 956.5693
1399 1423466796 956.6600
1400 1423470703 955.9637
1401 1423474609 958.9255
1402 1423478515 959.1024
1403 1423482421 957.1185
1404 1423486328 956.6569
1405 1423490234 956.4609
1406 1423494140 953.3846
1407 1423498046 955.9519
1408 1423501953 955.4280
1409 1423505859 955.1622
1410 1423509765 956.6208
1411 1423513671 958.0472
1412 1423517578 957.7875
1413 1423521484 954.6114
1414 1423525390 953.4398
1415 1423529296 955.8254
1416 1423533203 957.3398
1417 1423537109 963.8278
1418 1423541015 955.1947
1419 1423544921 958.0645
1420 1423548828 960.9241
1421 1423552734 956.4490
1422 1423556640 956.5602
1423 1423560546 957.2226
1424 1423564453 957.1797
1425 1423568359 957.0218
1426 1423572265 957.0881
1427 1423576171 959.7672
1428 1423580078 960.2692
1429 1423583984 960.2352
1430 1423587890 958.8999
1431 1423591796 957.8862
1432 1423595703 956.9238
1433 1423599609 961.5835
1434 1423603515 958.3554
1435 1423607421 958.1588
1436 1423611328 955.6909
1437 1423615234 959.1913
1438 1423619140 962.6083
1439 1423623046 964.2373
1440 1423626953 961.6494
1441 1423630859 962.0259
1442 1423634765 964.3792
1443 1423638671 961.3097
1444 1423642578 961.2938
1445 1423646484 957.5991
1446 1423650390 960.7228
1447 1423654296 964.8568
1448 1423658203 961.8283
1449 1423662109 962.1499
1450 1423666015 965.1307
1451 1423669921 965.4082
1452 1423673828 965.6348
1453 1423677734 965.2479
1454 1423681640 966.1586
1455 1423685546 968.9251
1456 1423689453 968.3771
1457 1423693359 970.1278
1458 1423697265 968.6086
1459 1423701171 967.2123
1460 1423705078 970.1138
1461 1423708984 972.7229
1462 1423712890 971.6779
1463 1423716796 972.2704
1464 1423720703 971.7599
1465 1423724609 976.6453
1466 1423728515 973.5864
1467 1423732421 974.7866
1468 1423736328 975.0209
1469 1423740234 976.2308
1470 1423744140 973.9293
1471 1423748046 981.8850
1472 1423751953 977.3176
1473 1423755859 980.3994
1474 1423759765 979.6355
1475 1423763671 979.1866
1476 1423767578 975.6695
1477 1423771484 980.3682
1478 1423775390 977.9802
1479 1423779296 980.3381
1480 1423783203 981.1990
1481 1423787109 977.2286
1482 1423791015 982.8839
1483 1423794921 982.8843
1484 1423798828 976.9613
1485 1423802734 983.1151
1486 1423806640 987.6815
1487 1423810546 983.3835
1488 1423814453 980.6095
1489 1423818359 985.0797
1490 1423822265 985.1674
1491 1423826171 981.7962
1492 1423830078 982.2890
1493 1423833984 984.1233
1494 1423837890 985.4326
1495 1423841796 982.6231
1496 1423845703 987.2377
1497 1423849609 984.4529
1498 1423853515 983.2235
1499 1423857421 987.6735
1500 1423861328 982.8316
1501 1423865234 982.9344
1502 1423869140 982.3815
1503 1423873046 984.2609
1504 1423876953 981.3134
1505 1423880859 984.7150
1506 1423884765 989.6942
1507 1423888671 984.5999
1508 1423892578 987.6195
1509 1423896484 985.4034
1510 1423900390 990.4522
1511 1423904296 984.3237
1512 1423908203 984.0905
1513 1423912109 984.6152
1514 1423916015 982.2834
1515 1423919921 982.9332
1516 1423923828 983.6028
1517 1423927734 982.7285
1518 1423931640 985.9022
1519 1423935546 984.7562
1520 1423939453 982.9786
1521 1423943359 982.8062
1522 1423947265 978.5346
1523 1423951171 980.4495
1524 1423955078 983.8305
1525 1423958984 983.4153
1526 1423962890 981.1961
1527 1423966796 979.0581
1528 1423970703 981.8994
1529 1423974609 982.9854
1530 1423978515 984.2964
1531 1423982421 982.4572
1532 1423986328 980.9520
1533 1423990234 981.7762
1534 1423994140 983.1792
1535 1423998046 984.1529
1536 1424001953 991.1607
1537 1424005859 984.4502
1538 1424009765 977.5822
1539 1424013671 977.1527
1540 1424017578 981.4406
1541 1424021484 979.3046
1542 1424025390 980.4806
1543 1424029296 983.4739
1544 1424033203 978.4815
1545 1424037109 977.0713
1546 1424041015 977.8456
1547 1424044921 979.5440
1548 1424048828 981.2734
1549 1424052734 979.6075
1550 1424056640 982.2713
1551 1424060546 980.0642
1552 1424064453 981.0598
1553 1424068359 981.6206
1554 1424072265 986.2703
1555 1424076171 983.6313
1556 1424080078 984.4644
1557 1424083984 983.6878
1558 1424087890 982.7087
1559 1424091796 982.9981
1560 1424095703 980.0830
1561 1424099609 983.1598
1562 1424103515 981.2785
1563 1424107421 982.5862
1564 1424111328 986.7465
1565 1424115234 985.3345
1566 1424119140 983.3054
1567 1424123046 985.2555
1568 1424126953 984.9464
1569 1424130859 988.6466
1570 1424134765 990.1857
1571 1424138671 989.9066
1572 1424142578 990.0465
1573 1424146484 990.5837
1574 1424150390 994.5013
1575 1424154296 992.3463
1576 1424158203 990.9597
1577 1424162109 994.5721
1578 1424166015 994.6811
1579 1424169921 994.5275
1580 1424173828 996.4016
1581 1424177734 998.1849
1582 1424181640 994.7405
1583 1424185546 995.3109
1584 1424189453 998.3267
1585 1424193359 999.9599
1586 1424197265 998.1498
1587 1424201171 998.6522
1588 1424205078 1002.4691
1589 1424208984 1000.2152
1590 1424212890 1003.8961
1591 1424216796 1002.0179
1592 1424220703 1003.3682
1593 1424224609 1005.7500
1594 1424228515 1007.6392
1595 1424232421 1008.7487
1596 1424236328 1007.4647
1597 1424240234 1007.5255
1598 1424244140 1011.2587
1599 1424248046 1007.9731
1600 1424251953 1011.9621
1601 1424255859 1010.1581
1602 1424259765 1013.7634
1603 1424263671 1014.0554
1604 1424267578 1013.5607
1605 1424271484 1016.5584
1606 1424275390 1013.0479
1607 1424279296 1019.2896
1608 1424283203 1018.2632
1609 1424287109 1020.4534
1610 1424291015 1018.5712
1611 1424294921 1016.0532
1612 1424298828 1019.5842
1613 1424302734 1020.3220
1614 1424306640 1021.7206
1615 1424310546 1020.0351
1616 1424314453 1023.7081
1617 1424318359 1018.2175
1618 1424322265 1018.4611
1619 1424326171 1023.3878
1620 1424330078 1028.3318
1621 1424333984 1025.2911
1622 1424337890 1024.0000
1623 1424341796 1023.5434
1624 1424345703 1025.2202
1625 1424349609 1024.7570
1626 1424353515 1021.8820
1627 1424357421 1024.4269
1628 1424361328 1026.5754
1629 1424365234 1025.5486
1630 1424369140 1027.6172
1631 1424373046 1025.7637
1632 1424376953 1028.8215
1633 1424380859 1023.7038
1634 1424384765 1027.3204
1635 1424388671 1025.5398
1636 1424392578 1030.9647
1637 1424396484 1029.1287
1638 1424400390 1027.5648
1639 1424404296 1027.3445
1640 1424408203 1028.4410
1641 1424412109 1030.3787
1642 1424416015 1029.0405
1643 1424419921 1024.5029
1644 1424423828 1028.9153
1645 1424427734 1025.0380
1646 1424431640 1026.4160
1647 1424435546 1029.7355
1648 1424439453 1026.1810
1649 1424443359 1024.0326
1650 1424447265 1023.1891
1651 1424451171 1029.3098
1652 1424455078 1027.7759
1653 1424458984 1027.4470
1654 1424462890 1025.4126
1655 1424466796 1023.5383
1656 1424470703 1022.8461
1657 1424474609 1025.3191
1658 1424478515 1026.0078
1659 1424482421 1020.7859
1660 1424486328 1022.4193
1661 1424490234 1025.9834
1662 1424494140 1027.2673
1663 1424498046 1022.7781
1664 1424501953 1024.5931
1665 1424505859 1022.8461
1666 1424509765 1021.1839
1667 1424513671 1023.1901
1668 1424517578 1024.5520
1669 1424521484 1023.6528
1670 1424525390 1027.9929
1671 1424529296 1020.5547
1672 1424533203 1024.2059
1673 1424537109 1020.5794
1674 1424541015 1024.5316
1675 1424544921 1024.8580
1676 1424548828 1023.9196
1677 1424552734 1022.5626
1678 1424556640 1019.5474
1679 1424560546 1022.9951
1680 1424564453 1024.3726
1681 1424568359 1023.5923
1682 1424572265 1022.8342
1683 1424576171 1016.5403
1684 1424580078 1020.3434
1685 1424583984 1018.5656
1686 1424587890 1020.1463
1687 1424591796 1018.9744
1688 1424595703 1018.5884
1689 1424599609 1017.3642
1690 1424603515 1015.8052
1691 1424607421 1022.3739
1692 1424611328 1019.3069
1693 1424615234 1018.2143
1694 1424619140 1016.8310
1695 1424623046 1015.1573
1696 1424626953 1014.3530
1697 1424630859 1019.1729
1698 1424634765 1018.4922
1699 1424638671 1018.7773
1700 1424642578 1012.9049
1701 1424646484 1017.7063
1702 1424650390 1016.9205
1703 1424654296 1016.3530
1704 1424658203 1014.3193
1705 1424662109 1015.3618
1706 1424666015 1012.6938
1707 1424669921 1018.2280
1708 1424673828 1014.3676
1709 1424677734 1013.4028
1710 1424681640 1011.8075
1711 1424685546 1016.5954
1712 1424689453 1012.7203
1713 1424693359 1010.0567
1714 1424697265 1011.1584
1715 1424701171 1008.4465
1716 1424705078 1009.3151
1717 1424708984 1011.2744
1718 1424712890 1006.2585
1719 1424716796 1005.1849
1720 1424720703 1004.7833
1721 1424724609 1008.8982
1722 1424728515 1002.5602
1723 1424732421 1008.1960
1724 1424736328 1004.0266
1725 1424740234 1004.2392
1726 1424744140 1000.6792
1727 1424748046 999.3485
1728 1424751953 999.8760
1729 1424755859 995.2828
1730 1424759765 997.1075
1731 1424763671 995.6478
1732 1424767578 993.4987
1733 1424771484 994.8016
1734 1424775390 992.6605
1735 1424779296 991.9819
1736 1424783203 992.7125
1737 1424787109 988.9219
1738 1424791015 989.8066
1739 1424794921 985.4340
1740 1424798828 984.7497
1741 1424802734 986.3626
1742 1424806640 987.6301
1743 1424810546 982.0546
1744 1424814453 982.0202
1745 1424818359 982.2539
1746 1424822265 979.9199
1747 1424826171 974.3790
1748 1424830078 977.4966
1749 1424833984 978.0646
1750 1424837890 973.4954
1751 1424841796 974.3959
1752 1424845703 970.0962
1753 1424849609 969.6985
1754 1424853515 969.7018
1755 1424857421 962.5034
1756 1424861328 961.7294
1757 1424865234 963.5952
1758 1424869140 960.4589
1759 1424873046 957.8773
1760 1424876953 958.7156
1761 1424880859 955.5590
1762 1424884765 952.0192
1763 1424888671 950.2186
1764 1424892578 948.5161
1765 1424896484 950.6174
1766 1424900390 944.8931
1767 1424904296 948.0443
1768 1424908203 947.7332
1769 1424912109 944.0071
1770 1424916015 945.4335
1771 1424919921 943.5831
1772 1424923828 943.5705
1773 1424927734 943.0547
1774 1424931640 943.7881
1775 1424935546 938.5604
1776 1424939453 941.6200
1777 1424943359 940.1115
1778 1424947265 941.4358
1779 1424951171 940.1207
1780 1424955078 938.9378
1781 1424958984 936.2766
1782 1424962890 938.5833
1783 1424966796 939.7330
1784 1424970703 940.5709
1785 1424974609 937.2735
1786 1424978515 935.0125
1787 1424982421 934.9212
1788 1424986328 937.4726
1789 1424990234 940.3296
1790 1424994140 938.3502
1791 1424998046 941.1937
1792 1425001953 943.1795
1793 1425005859 987.1763
1794 1425009765 992.3197
1795 1425013671 941.2903
1796 1425017578 947.4345
1797 1425021484 945.7468
1798 1425025390 943.9016
1799 1425029296 948.9413
1800 1425033203 947.5937
1801 1425037109 951.8680
1802 1425041015 954.9722
1803 1425044921 955.2395
1804 1425048828 954.3984
1805 1425052734 950.7633
1806 1425056640 957.3456
1807 1425060546 960.8149
1808 1425064453 962.7438
1809 1425068359 960.6115
1810 1425072265 966.7811
1811 1425076171 971.2097
1812 1425080078 967.8818
1813 1425083984 973.1152
1814 1425087890 974.4796
1815 1425091796 976.2999
1816 1425095703 978.2696
1817 1425099609 981.6082
1818 1425103515 983.8219
1819 1425107421 991.3018
1820 1425111328 991.5677
1821 1425115234 995.5945
1822 1425119140 994.6635
1823 1425123046 995.6283
1824 1425126953 999.3965
1825 1425130859 1004.3104
1826 1425134765 1009.7407
1827 1425138671 1010.1180
1828 1425142578 1018.4347
1829 1425146484 1018.9728
1830 1425150390 1026.3342
1831 1425154296 1028.1925
1832 1425158203 1028.3727
1833 1425162109 1033.3210
1834 1425166015 1031.7203
1835 1425169921 1036.6398
1836 1425173828 1039.7990
1837 1425177734 1041.4518
1838 1425181640 1045.8812
1839 1425185546 1047.0186
1840 1425189453 1049.9989
1841 1425193359 1051.6649
1842 1425197265 1055.4901
1843 1425201171 1055.8937
1844 1425205078 1054.1349
1845 1425208984 1059.9635
1846 1425212890 1062.9154
1847 1425216796 1059.1926
1848 1425220703 1063.7367
1849 1425224609 1061.7074
1850 1425228515 1066.5209
1851 1425232421 1061.6144
1852 1425236328 1067.8953
1853 1425240234 1065.7112
1854 1425244140 1063.1250
1855 1425248046 1062.4407
1856 1425251953 1062.6155
1857 1425255859 1066.8368
1858 1425259765 1064.4657
1859 1425263671 1058.5074
1860 1425267578 1055.9062
1861 1425271484 1053.3574
1862 1425275390 1053.6519
1863 1425279296 1052.5209
1864 1425283203 1047.7876
1865 1425287109 1044.0623
1866 1425291015 1041.6665
1867 1425294921 1040.7725
1868 1425298828 1029.9797
1869 1425302734 1024.6406
1870 1425306640 1022.1450
1871 1425310546 1018.0479
1872 1425314453 1012.3505
1873 1425318359 1009.6956
1874 1425322265 1002.1393
1875 1425326171 993.3210
1876 1425330078 983.0970
1877 1425333984 970.5461
1878 1425337890 965.7043
1879 1425341796 958.1989
1880 1425345703 950.8399
1881 1425349609 938.5400
1882 1425353515 928.0714
1883 1425357421 923.0732
1884 1425361328 912.2773
1885 1425365234 899.9417
1886 1425369140 890.6420
1887 1425373046 878.5464
1888 1425376953 864.7315
1889 1425380859 854.0944
1890 1425384765 842.7454
1891 1425388671 826.2863
1892 1425392578 813.1070
1893 1425396484 800.1725
1894 1425400390 783.6616
1895 1425404296 771.2089
1896 1425408203 759.5814
1897 1425412109 748.1719
1898 1425416015 733.5408
1899 1425419921 717.7507
1900 1425423828 705.1384
1901 1425427734 684.6741
1902 1425431640 674.1263
1903 1425435546 656.3887
1904 1425439453 642.5294
1905 1425443359 624.8661
1906 1425447265 608.6835
1907 1425451171 593.0677
1908 1425455078 580.1116
1909 1425458984 563.5212
1910 1425462890 546.7276
1911 1425466796 532.5211
1912 1425470703 515.2628
1913 1425474609 499.0680
1914 1425478515 483.2722
1915 1425482421 468.6506
1916 1425486328 453.7467
1917 1425490234 439.7427
1918 1425494140 422.8426
1919 1425498046 407.4325
1920 1425501953 392.4779
1921 1425505859 380.3013
1922 1425509765 364.5283
1923 1425513671 351.5880
1924 1425517578 337.0942
1925 1425521484 323.8840
1926 1425525390 309.9380
1927 1425529296 296.6318
1928 1425533203 284.3112
1929 1425537109 271.1956
1930 1425541015 259.2140
1931 1425544921 246.2877
1932 1425548828 235.0464
1933 1425552734 224.4778
1934 1425556640 212.7992
1935 1425560546 201.9195
1936 1425564453 191.0119
1937 1425568359 181.6566
1938 1425572265 171.5245
1939 1425576171 162.0268
1940 1425580078 153.4798
1941 1425583984 144.2410
1942 1425587890 135.4296
1943 1425591796 127.2155
1944 1425595703 119.2320
1945 1425599609 111.8024
1946 1425603515 104.7639
1947 1425607421 98.2764
1948 1425611328 91.4590
1949 1425615234 85.2254
1950 1425619140 79.3041
1951 1425623046 73.3207
1952 1425626953 68.0635
1953 1425630859 62.8833
1954 1425634765 58.0288
1955 1425638671 53.4124
1956 1425642578 49.3135
1957 1425646484 45.2580
1958 1425650390 41.4892
1959 1425654296 37.9001
1960 1425658203 34.5616
1961 1425662109 31.6066
1962 1425666015 28.7222
1963 1425669921 26.0229
1964 1425673828 23.4659
1965 1425677734 21.1455
1966 1425681640 19.0154
1967 1425685546 17.0070
1968 1425689453 15.2163
1969 1425693359 13.5292
1970 1425697265 11.9540
1971 1425701171 10.5617
1972 1425705078 9.3127
1973 1425708984 8.1802
1974 1425712890 7.1313
1975 1425716796 6.1602
1976 1425720703 5.3184
1977 1425724609 4.5852
1978 1425728515 3.9039
1979 1425732421 3.2921
1980 1425736328 2.7618
1981 1425740234 2.3066
1982 1425744140 1.8945
1983 1425748046 1.5440
1984 1425751953 1.2407
1985 1425755859 0.9830
1986 1425759765 0.7648
1987 1425763671 0.5833
1988 1425767578 0.4333
1989 1425771484 0.3136
1990 1425775390 0.2183
1991 1425779296 0.1469
1992 1425783203 0.0942
1993 1425787109 0.0598
1994 1425791015 0.0396
1995 1425794921 0.0325
1996 1425798828 0.0362
1997 1425802734 0.0491
1998 1425806640 0.0696
1999 1425810546 0.0962
2000 1425814453 0.1271
2001 1425818359 0.1623
2002 1425822265 0.2004
2003 1425826171 0.2400
2004 1425830078 0.2811
2005 1425833984 0.3226
2006 1425837890 0.3633
2007 1425841796 0.4011
2008 1425845703 0.4420
2009 1425849609 0.4796
2010 1425853515 0.5152
2011 1425857421 0.5509
2012 1425861328 0.5821
2013 1425865234 0.6118
2014 1425869140 0.6423
2015 1425873046 0.6671
2016 1425876953 0.6919
2017 1425880859 0.7124
2018 1425884765 0.7336
2019 1425888671 0.7503
2020 1425892578 0.7668
2021 1425896484 0.7808
2022 1425900390 0.7931
2023 1425904296 0.8050
2024 1425908203 0.8130
2025 1425912109 0.8219
2026 1425916015 0.8266
2027 1425919921 0.8327
2028 1425923828 0.8362
2029 1425927734 0.8376
2030 1425931640 0.8401
2031 1425935546 0.8416
2032 1425939453 0.8469
2033 1425943359 0.8435
2034 1425947265 0.8447
2035 1425951171 0.8456
2036 1425955078 0.8445
2037 1425958984 0.8452
2038 1425962890 0.8452
2039 1425966796 0.8425
2040 1425970703 0.8435
2041 1425974609 0.8440
2042 1425978515 0.8397
2043 1425982421 0.8416
2044 1425986328 0.8423
2045 1425990234 0.8389
2046 1425994140 0.8409
2047 1425998046 0.8422
