# File: 20-11-28T185011.hot
# NOTEA     = RSP1A+GPIOLabs Pi #1 On Horn
# NOTEB     = Sdrplay 8 MHz Test
# OBSERVER  = Science Aficionado
# DEVICE    = SDRPlay RSP1A
# DATADIR   = ../data/
# SITE      = RSP1A+GPIOLabs Pi #1 On Horn
# CITY      = Green Bank
# REGION    = West Virginia
# COUNTRY   = US
# TELTYPE   = Bubble Wrap  Horn
# FRAME     = TOPO
# GAIN1     = 0.0
# GAIN2     = 12.0
# GAIN3     = 12.0
# GAIN4     = 0.0
# Count     = 360000
# CenterFreq= 1422000000.0
# Bandwidth = 8000000.0
# Duration  = 157.289455
# DeltaX    = 5859.375
# TSYS      = 200.0
# TRX       = 100.0
# TRMS      = 2.0
# TINT      = 1.0
# KPERC     = 100.0
# GAINFACT  = 1.0
# BUNIT     = Counts
# NCHAN     = 2048
# NSPEC     = 1
# NTIME     = 0
# NSAMPLES  = 0
# EPEAK     = 4.10875183718
# ERMS      = 0.995973393526
# EMJD      = 58568.808999981004 
# REFCHAN   = 1024.0
# REFSAMPL  = 256.0
# NAVE      = 600
# NMEDIAN   = 1024
# Fft_rate  = 5000
# UTC       = 2020-11-28 18:50:11.129037
# SECONDS   =       0.0000000000 
# LST       = 18:03:19.770
# AZ        = 180.0
# EL        = -40.0
# TELLON    = -79:50:22.920
# TELLAT    = +38:25:59.160
# RA        = 06:33:57.730
# DEC       = -88:25:01.400
# GALLON    = 301:09:24.00
# GALLAT    = -27:14:15.60
# ALT_SUN   = +25:27:57.1
# AZ_SUN    = +206:29:52.0
# ETAA      = 0.8
# ETAB      = 0.99
# POLANGLE  = 0.0
# TELSIZEAM = 1.0
# TELSIZEBM = 1.0
# AST_VERS  = 05.01
0000 1418001953 0.8745
0001 1418005859 0.8757
0002 1418009765 0.8775
0003 1418013671 0.8791
0004 1418017578 0.8786
0005 1418021484 0.8801
0006 1418025390 0.8828
0007 1418029296 0.8873
0008 1418033203 0.8938
0009 1418037109 0.8932
0010 1418041015 0.8915
0011 1418044921 0.8970
0012 1418048828 0.9005
0013 1418052734 0.9013
0014 1418056640 0.9003
0015 1418060546 0.9035
0016 1418064453 0.9038
0017 1418068359 0.9035
0018 1418072265 0.9025
0019 1418076171 0.9031
0020 1418080078 0.8970
0021 1418083984 0.8952
0022 1418087890 0.8895
0023 1418091796 0.8844
0024 1418095703 0.8794
0025 1418099609 0.8696
0026 1418103515 0.8597
0027 1418107421 0.8489
0028 1418111328 0.8355
0029 1418115234 0.8184
0030 1418119140 0.7967
0031 1418123046 0.7769
0032 1418126953 0.7528
0033 1418130859 0.7318
0034 1418134765 0.7007
0035 1418138671 0.6683
0036 1418142578 0.6391
0037 1418146484 0.6008
0038 1418150390 0.5630
0039 1418154296 0.5251
0040 1418158203 0.4851
0041 1418162109 0.4413
0042 1418166015 0.3973
0043 1418169921 0.3527
0044 1418173828 0.3062
0045 1418177734 0.2619
0046 1418181640 0.2186
0047 1418185546 0.1767
0048 1418189453 0.1385
0049 1418193359 0.1036
0050 1418197265 0.0747
0051 1418201171 0.0522
0052 1418205078 0.0380
0053 1418208984 0.0337
0054 1418212890 0.0416
0055 1418216796 0.0635
0056 1418220703 0.1025
0057 1418224609 0.1597
0058 1418228515 0.2402
0059 1418232421 0.3441
0060 1418236328 0.4778
0061 1418240234 0.6389
0062 1418244140 0.8438
0063 1418248046 1.0878
0064 1418251953 1.3671
0065 1418255859 1.7071
0066 1418259765 2.0959
0067 1418263671 2.5453
0068 1418267578 3.0494
0069 1418271484 3.6421
0070 1418275390 4.2908
0071 1418279296 5.0502
0072 1418283203 5.8738
0073 1418287109 6.8164
0074 1418291015 7.8447
0075 1418294921 9.0184
0076 1418298828 10.2765
0077 1418302734 11.6586
0078 1418306640 13.2725
0079 1418310546 14.8797
0080 1418314453 16.7236
0081 1418318359 18.8374
0082 1418322265 20.9289
0083 1418326171 23.2537
0084 1418330078 25.8157
0085 1418333984 28.6214
0086 1418337890 31.5835
0087 1418341796 34.7910
0088 1418345703 38.1861
0089 1418349609 41.9389
0090 1418353515 45.9848
0091 1418357421 50.0936
0092 1418361328 54.3310
0093 1418365234 59.0640
0094 1418369140 64.3405
0095 1418373046 69.5030
0096 1418376953 74.9359
0097 1418380859 81.2012
0098 1418384765 87.4548
0099 1418388671 93.7783
0100 1418392578 101.0946
0101 1418396484 108.2464
0102 1418400390 115.6612
0103 1418404296 123.9891
0104 1418408203 132.1459
0105 1418412109 140.2973
0106 1418416015 150.0539
0107 1418419921 159.1293
0108 1418423828 168.5728
0109 1418427734 179.2022
0110 1418431640 190.0485
0111 1418435546 200.4403
0112 1418439453 211.4344
0113 1418443359 223.4204
0114 1418447265 234.9488
0115 1418451171 247.2335
0116 1418455078 260.0603
0117 1418458984 273.3259
0118 1418462890 286.7994
0119 1418466796 301.2870
0120 1418470703 314.0002
0121 1418474609 329.3691
0122 1418478515 343.3584
0123 1418482421 358.3146
0124 1418486328 373.4142
0125 1418490234 388.3308
0126 1418494140 404.0330
0127 1418498046 420.4371
0128 1418501953 436.1759
0129 1418505859 453.0584
0130 1418509765 471.6729
0131 1418513671 487.8822
0132 1418517578 502.9272
0133 1418521484 519.2360
0134 1418525390 537.5491
0135 1418529296 554.9267
0136 1418533203 572.5301
0137 1418537109 587.6418
0138 1418541015 606.6437
0139 1418544921 623.5152
0140 1418548828 641.9214
0141 1418552734 656.7498
0142 1418556640 673.9753
0143 1418560546 691.9354
0144 1418564453 712.1807
0145 1418568359 725.5741
0146 1418572265 745.0181
0147 1418576171 759.8375
0148 1418580078 778.9155
0149 1418583984 796.8663
0150 1418587890 809.3170
0151 1418591796 824.3866
0152 1418595703 843.9776
0153 1418599609 857.0243
0154 1418603515 872.4982
0155 1418607421 886.7123
0156 1418611328 902.9355
0157 1418615234 917.0654
0158 1418619140 930.7065
0159 1418623046 946.0747
0160 1418626953 956.4213
0161 1418630859 968.0383
0162 1418634765 989.2114
0163 1418638671 1001.8318
0164 1418642578 1008.0387
0165 1418646484 1022.9434
0166 1418650390 1030.0719
0167 1418654296 1040.9465
0168 1418658203 1056.7854
0169 1418662109 1065.3391
0170 1418666015 1069.8564
0171 1418669921 1082.5347
0172 1418673828 1092.2053
0173 1418677734 1100.0470
0174 1418681640 1107.9894
0175 1418685546 1113.8806
0176 1418689453 1118.7592
0177 1418693359 1126.7457
0178 1418697265 1137.6938
0179 1418701171 1142.0613
0180 1418705078 1147.9250
0181 1418708984 1150.2686
0182 1418712890 1155.0811
0183 1418716796 1160.7212
0184 1418720703 1160.1115
0185 1418724609 1163.2263
0186 1418728515 1168.9363
0187 1418732421 1172.2711
0188 1418736328 1179.5748
0189 1418740234 1177.7429
0190 1418744140 1182.9385
0191 1418748046 1182.9763
0192 1418751953 1176.8400
0193 1418755859 1181.2100
0194 1418759765 1183.1548
0195 1418763671 1185.0934
0196 1418767578 1182.6489
0197 1418771484 1181.8494
0198 1418775390 1184.8790
0199 1418779296 1184.1406
0200 1418783203 1179.3981
0201 1418787109 1180.6676
0202 1418791015 1175.9686
0203 1418794921 1176.9452
0204 1418798828 1173.2859
0205 1418802734 1176.1011
0206 1418806640 1171.8230
0207 1418810546 1165.5226
0208 1418814453 1162.0646
0209 1418818359 1163.5428
0210 1418822265 1154.7025
0211 1418826171 1154.1775
0212 1418830078 1153.1564
0213 1418833984 1151.0052
0214 1418837890 1142.6593
0215 1418841796 1143.2262
0216 1418845703 1142.3307
0217 1418849609 1137.3533
0218 1418853515 1134.4559
0219 1418857421 1131.6936
0220 1418861328 1125.2847
0221 1418865234 1120.3104
0222 1418869140 1121.5894
0223 1418873046 1117.2548
0224 1418876953 1113.5916
0225 1418880859 1113.7021
0226 1418884765 1105.9502
0227 1418888671 1103.4849
0228 1418892578 1101.5505
0229 1418896484 1101.0343
0230 1418900390 1092.6704
0231 1418904296 1090.7312
0232 1418908203 1087.2428
0233 1418912109 1086.7294
0234 1418916015 1083.2064
0235 1418919921 1079.8951
0236 1418923828 1074.9469
0237 1418927734 1072.7509
0238 1418931640 1071.2052
0239 1418935546 1066.1958
0240 1418939453 1069.5551
0241 1418943359 1065.0631
0242 1418947265 1061.9624
0243 1418951171 1058.4777
0244 1418955078 1057.6406
0245 1418958984 1057.0958
0246 1418962890 1051.7246
0247 1418966796 1053.4188
0248 1418970703 1050.3092
0249 1418974609 1048.7997
0250 1418978515 1050.7672
0251 1418982421 1044.4055
0252 1418986328 1048.2490
0253 1418990234 1046.0005
0254 1418994140 1043.0073
0255 1418998046 1042.7234
0256 1419001953 1040.0732
0257 1419005859 1039.5796
0258 1419009765 1043.6890
0259 1419013671 1045.8370
0260 1419017578 1043.2224
0261 1419021484 1038.5681
0262 1419025390 1039.6871
0263 1419029296 1043.3988
0264 1419033203 1037.4492
0265 1419037109 1042.5116
0266 1419041015 1039.9011
0267 1419044921 1036.5641
0268 1419048828 1038.3687
0269 1419052734 1041.9305
0270 1419056640 1044.9209
0271 1419060546 1041.7448
0272 1419064453 1044.0857
0273 1419068359 1042.4788
0274 1419072265 1043.4054
0275 1419076171 1045.6652
0276 1419080078 1047.7717
0277 1419083984 1049.1094
0278 1419087890 1048.3507
0279 1419091796 1048.8290
0280 1419095703 1047.6698
0281 1419099609 1049.7668
0282 1419103515 1052.8492
0283 1419107421 1053.7520
0284 1419111328 1049.2830
0285 1419115234 1056.0648
0286 1419119140 1054.6976
0287 1419123046 1061.6360
0288 1419126953 1056.5397
0289 1419130859 1060.6685
0290 1419134765 1062.4138
0291 1419138671 1061.9631
0292 1419142578 1065.5613
0293 1419146484 1062.7709
0294 1419150390 1067.2212
0295 1419154296 1070.2767
0296 1419158203 1069.8068
0297 1419162109 1071.3767
0298 1419166015 1072.7372
0299 1419169921 1073.3290
0300 1419173828 1078.5167
0301 1419177734 1077.8529
0302 1419181640 1075.4509
0303 1419185546 1085.4075
0304 1419189453 1085.6064
0305 1419193359 1086.8922
0306 1419197265 1084.6793
0307 1419201171 1087.5933
0308 1419205078 1088.0720
0309 1419208984 1095.2373
0310 1419212890 1088.7272
0311 1419216796 1089.9781
0312 1419220703 1092.5363
0313 1419224609 1097.1958
0314 1419228515 1100.5812
0315 1419232421 1100.3899
0316 1419236328 1099.3242
0317 1419240234 1098.3877
0318 1419244140 1100.2063
0319 1419248046 1100.8092
0320 1419251953 1104.5724
0321 1419255859 1099.4531
0322 1419259765 1104.0870
0323 1419263671 1101.3060
0324 1419267578 1103.7314
0325 1419271484 1109.2303
0326 1419275390 1109.7646
0327 1419279296 1105.6587
0328 1419283203 1109.1334
0329 1419287109 1112.2883
0330 1419291015 1107.8317
0331 1419294921 1108.6252
0332 1419298828 1112.9408
0333 1419302734 1111.0061
0334 1419306640 1110.4012
0335 1419310546 1111.1100
0336 1419314453 1118.3445
0337 1419318359 1117.6938
0338 1419322265 1115.9139
0339 1419326171 1115.3728
0340 1419330078 1112.7161
0341 1419333984 1118.4708
0342 1419337890 1117.6688
0343 1419341796 1114.7468
0344 1419345703 1116.3132
0345 1419349609 1113.3069
0346 1419353515 1116.9957
0347 1419357421 1118.2030
0348 1419361328 1118.8784
0349 1419365234 1114.7434
0350 1419369140 1120.3773
0351 1419373046 1117.3928
0352 1419376953 1118.4056
0353 1419380859 1119.4243
0354 1419384765 1118.3419
0355 1419388671 1119.9861
0356 1419392578 1115.2046
0357 1419396484 1115.1056
0358 1419400390 1118.3843
0359 1419404296 1122.1246
0360 1419408203 1122.6218
0361 1419412109 1120.5157
0362 1419416015 1120.2849
0363 1419419921 1122.1460
0364 1419423828 1121.5836
0365 1419427734 1119.2375
0366 1419431640 1123.6914
0367 1419435546 1124.8170
0368 1419439453 1123.0552
0369 1419443359 1121.7888
0370 1419447265 1120.4308
0371 1419451171 1122.0306
0372 1419455078 1121.4919
0373 1419458984 1120.9307
0374 1419462890 1121.2224
0375 1419466796 1121.2272
0376 1419470703 1123.9788
0377 1419474609 1125.5220
0378 1419478515 1124.9480
0379 1419482421 1123.6481
0380 1419486328 1123.1770
0381 1419490234 1120.8812
0382 1419494140 1119.1553
0383 1419498046 1123.7142
0384 1419501953 1127.7263
0385 1419505859 1124.1929
0386 1419509765 1123.8030
0387 1419513671 1124.6902
0388 1419517578 1122.7013
0389 1419521484 1123.8195
0390 1419525390 1125.6257
0391 1419529296 1124.7428
0392 1419533203 1123.7335
0393 1419537109 1119.9727
0394 1419541015 1120.8577
0395 1419544921 1119.7468
0396 1419548828 1121.4933
0397 1419552734 1127.2953
0398 1419556640 1128.4969
0399 1419560546 1127.2656
0400 1419564453 1128.7577
0401 1419568359 1125.3862
0402 1419572265 1130.9327
0403 1419576171 1120.5118
0404 1419580078 1126.4237
0405 1419583984 1127.8545
0406 1419587890 1126.2515
0407 1419591796 1122.5674
0408 1419595703 1123.8671
0409 1419599609 1125.6100
0410 1419603515 1125.6616
0411 1419607421 1121.9626
0412 1419611328 1124.9834
0413 1419615234 1125.8708
0414 1419619140 1126.0768
0415 1419623046 1123.6373
0416 1419626953 1126.4075
0417 1419630859 1121.6156
0418 1419634765 1127.9349
0419 1419638671 1124.6464
0420 1419642578 1126.2990
0421 1419646484 1126.5895
0422 1419650390 1119.8602
0423 1419654296 1116.9149
0424 1419658203 1117.3353
0425 1419662109 1122.7672
0426 1419666015 1120.5261
0427 1419669921 1119.2665
0428 1419673828 1117.3457
0429 1419677734 1116.0560
0430 1419681640 1113.9745
0431 1419685546 1115.6113
0432 1419689453 1121.2036
0433 1419693359 1117.9395
0434 1419697265 1112.8225
0435 1419701171 1117.7102
0436 1419705078 1115.1793
0437 1419708984 1115.0736
0438 1419712890 1111.2158
0439 1419716796 1111.3822
0440 1419720703 1110.4884
0441 1419724609 1110.3336
0442 1419728515 1110.2775
0443 1419732421 1106.2385
0444 1419736328 1104.0149
0445 1419740234 1104.3145
0446 1419744140 1104.2889
0447 1419748046 1104.9889
0448 1419751953 1101.7443
0449 1419755859 1103.2892
0450 1419759765 1104.0007
0451 1419763671 1098.3324
0452 1419767578 1094.4248
0453 1419771484 1097.7732
0454 1419775390 1098.1836
0455 1419779296 1094.0706
0456 1419783203 1091.7365
0457 1419787109 1094.2535
0458 1419791015 1094.5441
0459 1419794921 1095.8079
0460 1419798828 1092.4119
0461 1419802734 1086.7283
0462 1419806640 1087.6543
0463 1419810546 1086.7729
0464 1419814453 1087.7219
0465 1419818359 1085.9425
0466 1419822265 1082.3459
0467 1419826171 1085.6958
0468 1419830078 1083.7006
0469 1419833984 1084.0171
0470 1419837890 1079.7345
0471 1419841796 1079.3093
0472 1419845703 1080.5415
0473 1419849609 1078.6401
0474 1419853515 1074.5378
0475 1419857421 1072.6528
0476 1419861328 1077.1097
0477 1419865234 1073.1578
0478 1419869140 1072.6434
0479 1419873046 1076.4607
0480 1419876953 1070.8990
0481 1419880859 1067.5892
0482 1419884765 1072.1100
0483 1419888671 1070.1377
0484 1419892578 1068.8961
0485 1419896484 1067.3180
0486 1419900390 1068.8585
0487 1419904296 1069.1957
0488 1419908203 1066.7025
0489 1419912109 1066.8898
0490 1419916015 1069.2269
0491 1419919921 1068.7733
0492 1419923828 1065.7305
0493 1419927734 1068.5858
0494 1419931640 1067.7494
0495 1419935546 1064.3376
0496 1419939453 1063.4745
0497 1419943359 1068.7690
0498 1419947265 1059.6071
0499 1419951171 1056.2209
0500 1419955078 1066.8590
0501 1419958984 1069.0145
0502 1419962890 1064.2335
0503 1419966796 1058.5946
0504 1419970703 1057.9547
0505 1419974609 1061.2560
0506 1419978515 1064.0570
0507 1419982421 1059.8425
0508 1419986328 1059.8163
0509 1419990234 1064.1945
0510 1419994140 1058.8688
0511 1419998046 1062.1110
0512 1420001953 1061.4486
0513 1420005859 1060.4476
0514 1420009765 1058.4724
0515 1420013671 1060.3551
0516 1420017578 1059.1152
0517 1420021484 1060.4817
0518 1420025390 1057.7345
0519 1420029296 1061.2164
0520 1420033203 1061.4237
0521 1420037109 1064.2249
0522 1420041015 1063.4363
0523 1420044921 1065.3733
0524 1420048828 1061.3743
0525 1420052734 1059.1528
0526 1420056640 1060.5890
0527 1420060546 1063.7124
0528 1420064453 1060.4366
0529 1420068359 1058.0135
0530 1420072265 1064.7876
0531 1420076171 1059.9785
0532 1420080078 1065.3428
0533 1420083984 1063.5209
0534 1420087890 1065.4011
0535 1420091796 1064.6526
0536 1420095703 1061.3257
0537 1420099609 1064.2595
0538 1420103515 1067.3278
0539 1420107421 1062.6472
0540 1420111328 1062.5538
0541 1420115234 1062.6113
0542 1420119140 1066.5206
0543 1420123046 1064.1356
0544 1420126953 1063.0682
0545 1420130859 1060.8715
0546 1420134765 1063.4142
0547 1420138671 1063.6912
0548 1420142578 1061.0212
0549 1420146484 1060.9520
0550 1420150390 1064.2021
0551 1420154296 1062.7710
0552 1420158203 1061.1908
0553 1420162109 1062.8075
0554 1420166015 1065.0667
0555 1420169921 1064.3737
0556 1420173828 1056.2458
0557 1420177734 1057.7284
0558 1420181640 1061.2872
0559 1420185546 1061.3370
0560 1420189453 1061.0763
0561 1420193359 1058.3944
0562 1420197265 1059.4221
0563 1420201171 1059.6628
0564 1420205078 1057.8293
0565 1420208984 1054.6737
0566 1420212890 1054.4044
0567 1420216796 1060.3214
0568 1420220703 1057.8524
0569 1420224609 1059.1176
0570 1420228515 1056.3661
0571 1420232421 1052.6333
0572 1420236328 1057.9279
0573 1420240234 1051.2164
0574 1420244140 1051.7551
0575 1420248046 1055.0957
0576 1420251953 1052.4381
0577 1420255859 1051.1854
0578 1420259765 1051.5194
0579 1420263671 1049.2125
0580 1420267578 1051.0663
0581 1420271484 1047.6937
0582 1420275390 1051.9907
0583 1420279296 1047.5901
0584 1420283203 1051.5106
0585 1420287109 1049.4918
0586 1420291015 1048.3204
0587 1420294921 1048.1859
0588 1420298828 1046.0514
0589 1420302734 1044.8097
0590 1420306640 1046.7979
0591 1420310546 1042.4722
0592 1420314453 1044.6404
0593 1420318359 1044.7838
0594 1420322265 1045.6945
0595 1420326171 1043.8671
0596 1420330078 1045.9604
0597 1420333984 1042.3867
0598 1420337890 1041.9363
0599 1420341796 1045.7346
0600 1420345703 1041.5146
0601 1420349609 1039.0847
0602 1420353515 1039.7925
0603 1420357421 1040.0461
0604 1420361328 1040.9653
0605 1420365234 1039.1982
0606 1420369140 1036.1833
0607 1420373046 1037.7572
0608 1420376953 1035.7008
0609 1420380859 1035.5651
0610 1420384765 1032.6061
0611 1420388671 1032.8499
0612 1420392578 1035.4451
0613 1420396484 1034.3574
0614 1420400390 1033.0200
0615 1420404296 1031.4950
0616 1420408203 1030.6394
0617 1420412109 1031.7975
0618 1420416015 1029.8011
0619 1420419921 1028.0327
0620 1420423828 1026.9817
0621 1420427734 1025.0549
0622 1420431640 1024.2777
0623 1420435546 1022.9346
0624 1420439453 1024.7620
0625 1420443359 1025.8353
0626 1420447265 1026.7611
0627 1420451171 1030.1938
0628 1420455078 1025.9048
0629 1420458984 1025.0756
0630 1420462890 1024.6719
0631 1420466796 1030.1392
0632 1420470703 1025.5360
0633 1420474609 1027.7316
0634 1420478515 1021.7571
0635 1420482421 1024.9323
0636 1420486328 1026.4720
0637 1420490234 1026.1219
0638 1420494140 1021.9030
0639 1420498046 1024.9424
0640 1420501953 1024.5404
0641 1420505859 1027.6324
0642 1420509765 1027.9458
0643 1420513671 1021.0853
0644 1420517578 1031.0852
0645 1420521484 1027.1724
0646 1420525390 1023.3310
0647 1420529296 1022.7682
0648 1420533203 1024.1594
0649 1420537109 1021.8726
0650 1420541015 1024.9897
0651 1420544921 1024.0665
0652 1420548828 1028.1584
0653 1420552734 1027.9728
0654 1420556640 1022.1022
0655 1420560546 1023.5107
0656 1420564453 1027.5752
0657 1420568359 1026.3994
0658 1420572265 1025.4912
0659 1420576171 1025.0997
0660 1420580078 1027.1964
0661 1420583984 1023.7026
0662 1420587890 1028.2153
0663 1420591796 1027.2617
0664 1420595703 1026.8335
0665 1420599609 1023.5352
0666 1420603515 1027.5197
0667 1420607421 1024.5780
0668 1420611328 1027.1189
0669 1420615234 1025.9399
0670 1420619140 1022.2728
0671 1420623046 1026.3060
0672 1420626953 1025.2776
0673 1420630859 1026.1509
0674 1420634765 1028.9114
0675 1420638671 1026.5110
0676 1420642578 1022.5170
0677 1420646484 1027.5946
0678 1420650390 1023.4889
0679 1420654296 1026.5134
0680 1420658203 1023.3037
0681 1420662109 1020.8173
0682 1420666015 1025.7913
0683 1420669921 1030.5283
0684 1420673828 1022.9851
0685 1420677734 1021.5226
0686 1420681640 1022.1008
0687 1420685546 1021.4827
0688 1420689453 1023.4821
0689 1420693359 1023.9692
0690 1420697265 1021.1711
0691 1420701171 1019.5721
0692 1420705078 1019.8353
0693 1420708984 1020.9863
0694 1420712890 1023.2708
0695 1420716796 1022.7207
0696 1420720703 1019.4814
0697 1420724609 1021.3644
0698 1420728515 1015.2266
0699 1420732421 1015.3151
0700 1420736328 1019.7374
0701 1420740234 1015.0507
0702 1420744140 1018.4822
0703 1420748046 1019.8015
0704 1420751953 1015.7885
0705 1420755859 1016.7300
0706 1420759765 1013.1763
0707 1420763671 1018.6340
0708 1420767578 1011.5391
0709 1420771484 1010.3055
0710 1420775390 1013.8665
0711 1420779296 1011.8126
0712 1420783203 1010.5314
0713 1420787109 1008.1780
0714 1420791015 1011.8120
0715 1420794921 1012.9067
0716 1420798828 1010.1607
0717 1420802734 1010.0745
0718 1420806640 1007.8231
0719 1420810546 1008.2727
0720 1420814453 1007.7551
0721 1420818359 1006.8710
0722 1420822265 1007.4490
0723 1420826171 1010.3279
0724 1420830078 1004.6895
0725 1420833984 1001.6796
0726 1420837890 1002.7548
0727 1420841796 1005.6937
0728 1420845703 1004.1591
0729 1420849609 1001.0504
0730 1420853515 997.8888
0731 1420857421 1003.6877
0732 1420861328 1004.7733
0733 1420865234 1004.3760
0734 1420869140 1006.6124
0735 1420873046 1004.7707
0736 1420876953 1007.2545
0737 1420880859 1003.7156
0738 1420884765 1004.0322
0739 1420888671 1008.0149
0740 1420892578 1001.6861
0741 1420896484 1000.6236
0742 1420900390 1002.1076
0743 1420904296 1006.2204
0744 1420908203 1007.0159
0745 1420912109 1007.6664
0746 1420916015 1004.6475
0747 1420919921 1008.0367
0748 1420923828 1005.3506
0749 1420927734 1005.2119
0750 1420931640 1007.0901
0751 1420935546 1009.9438
0752 1420939453 1008.6558
0753 1420943359 1008.5354
0754 1420947265 1006.9415
0755 1420951171 1005.0570
0756 1420955078 1010.9158
0757 1420958984 1011.3213
0758 1420962890 1009.5005
0759 1420966796 1014.0291
0760 1420970703 1015.9080
0761 1420974609 1018.6825
0762 1420978515 1014.4081
0763 1420982421 1015.8990
0764 1420986328 1017.3406
0765 1420990234 1017.6888
0766 1420994140 1021.5524
0767 1420998046 1023.9177
0768 1421001953 1023.7876
0769 1421005859 1023.6581
0770 1421009765 1023.2045
0771 1421013671 1025.4879
0772 1421017578 1027.0585
0773 1421021484 1027.4333
0774 1421025390 1027.7123
0775 1421029296 1030.4006
0776 1421033203 1027.4604
0777 1421037109 1027.8151
0778 1421041015 1032.1284
0779 1421044921 1032.9094
0780 1421048828 1038.2623
0781 1421052734 1032.5862
0782 1421056640 1037.3186
0783 1421060546 1041.3003
0784 1421064453 1036.5302
0785 1421068359 1037.8457
0786 1421072265 1038.7135
0787 1421076171 1042.2866
0788 1421080078 1042.0684
0789 1421083984 1041.7599
0790 1421087890 1044.6648
0791 1421091796 1046.0094
0792 1421095703 1042.5265
0793 1421099609 1041.6918
0794 1421103515 1045.8065
0795 1421107421 1048.4861
0796 1421111328 1050.7073
0797 1421115234 1047.7606
0798 1421119140 1050.4379
0799 1421123046 1051.1735
0800 1421126953 1051.1809
0801 1421130859 1052.3380
0802 1421134765 1055.1184
0803 1421138671 1054.3739
0804 1421142578 1052.9777
0805 1421146484 1047.3850
0806 1421150390 1050.8644
0807 1421154296 1055.4031
0808 1421158203 1056.8441
0809 1421162109 1055.5533
0810 1421166015 1057.7812
0811 1421169921 1051.7755
0812 1421173828 1059.1997
0813 1421177734 1056.0192
0814 1421181640 1053.2814
0815 1421185546 1055.1285
0816 1421189453 1057.9514
0817 1421193359 1052.5122
0818 1421197265 1053.4513
0819 1421201171 1054.1613
0820 1421205078 1053.8348
0821 1421208984 1063.0748
0822 1421212890 1056.1390
0823 1421216796 1053.9861
0824 1421220703 1052.9270
0825 1421224609 1047.5283
0826 1421228515 1052.3732
0827 1421232421 1051.4950
0828 1421236328 1050.0552
0829 1421240234 1053.1016
0830 1421244140 1051.8553
0831 1421248046 1046.3939
0832 1421251953 1049.7720
0833 1421255859 1048.8866
0834 1421259765 1049.0646
0835 1421263671 1047.9758
0836 1421267578 1048.0966
0837 1421271484 1048.6611
0838 1421275390 1044.3850
0839 1421279296 1046.0514
0840 1421283203 1047.2896
0841 1421287109 1044.3170
0842 1421291015 1041.0920
0843 1421294921 1038.0084
0844 1421298828 1042.7321
0845 1421302734 1040.5626
0846 1421306640 1037.9420
0847 1421310546 1036.6268
0848 1421314453 1037.2969
0849 1421318359 1033.2103
0850 1421322265 1032.5662
0851 1421326171 1031.9451
0852 1421330078 1029.9376
0853 1421333984 1031.0114
0854 1421337890 1028.6948
0855 1421341796 1029.3358
0856 1421345703 1028.5090
0857 1421349609 1025.9565
0858 1421353515 1026.9825
0859 1421357421 1024.1080
0860 1421361328 1025.1743
0861 1421365234 1016.6947
0862 1421369140 1019.6318
0863 1421373046 1023.0887
0864 1421376953 1021.7712
0865 1421380859 1022.2745
0866 1421384765 1017.6921
0867 1421388671 1021.1478
0868 1421392578 1017.7941
0869 1421396484 1021.1500
0870 1421400390 1017.4811
0871 1421404296 1016.2763
0872 1421408203 1013.9580
0873 1421412109 1014.6299
0874 1421416015 1019.4346
0875 1421419921 1015.9507
0876 1421423828 1013.8253
0877 1421427734 1015.0371
0878 1421431640 1018.3827
0879 1421435546 1014.3840
0880 1421439453 1015.0872
0881 1421443359 1018.2052
0882 1421447265 1013.4521
0883 1421451171 1014.2941
0884 1421455078 1012.0118
0885 1421458984 1018.9552
0886 1421462890 1021.1469
0887 1421466796 1017.9529
0888 1421470703 1017.6847
0889 1421474609 1017.4997
0890 1421478515 1017.1998
0891 1421482421 1019.4615
0892 1421486328 1019.1995
0893 1421490234 1023.1589
0894 1421494140 1018.3860
0895 1421498046 1022.4390
0896 1421501953 1022.9370
0897 1421505859 1023.3477
0898 1421509765 1021.2744
0899 1421513671 1025.8748
0900 1421517578 1026.5171
0901 1421521484 1019.2661
0902 1421525390 1022.3358
0903 1421529296 1027.9966
0904 1421533203 1027.9203
0905 1421537109 1031.5991
0906 1421541015 1036.1287
0907 1421544921 1034.3546
0908 1421548828 1034.5105
0909 1421552734 1036.3035
0910 1421556640 1039.0300
0911 1421560546 1039.1848
0912 1421564453 1040.3395
0913 1421568359 1039.6493
0914 1421572265 1043.6775
0915 1421576171 1041.9501
0916 1421580078 1041.6331
0917 1421583984 1043.7488
0918 1421587890 1046.1543
0919 1421591796 1045.1837
0920 1421595703 1052.3447
0921 1421599609 1050.6099
0922 1421603515 1058.1000
0923 1421607421 1056.5383
0924 1421611328 1052.9717
0925 1421615234 1054.6100
0926 1421619140 1057.5165
0927 1421623046 1061.7432
0928 1421626953 1060.0496
0929 1421630859 1062.2937
0930 1421634765 1063.8025
0931 1421638671 1064.9237
0932 1421642578 1064.1992
0933 1421646484 1066.2023
0934 1421650390 1067.0773
0935 1421654296 1069.0612
0936 1421658203 1070.6398
0937 1421662109 1070.5802
0938 1421666015 1071.6239
0939 1421669921 1072.2501
0940 1421673828 1070.6527
0941 1421677734 1072.6908
0942 1421681640 1074.4021
0943 1421685546 1077.3962
0944 1421689453 1078.9977
0945 1421693359 1075.4380
0946 1421697265 1075.3978
0947 1421701171 1078.8145
0948 1421705078 1078.9539
0949 1421708984 1076.0356
0950 1421712890 1076.9482
0951 1421716796 1078.5004
0952 1421720703 1077.6953
0953 1421724609 1078.5232
0954 1421728515 1083.3030
0955 1421732421 1080.6941
0956 1421736328 1075.1166
0957 1421740234 1078.1865
0958 1421744140 1074.0148
0959 1421748046 1071.3392
0960 1421751953 1075.8661
0961 1421755859 1075.6644
0962 1421759765 1077.9886
0963 1421763671 1075.5800
0964 1421767578 1075.9904
0965 1421771484 1073.8347
0966 1421775390 1075.0145
0967 1421779296 1072.8430
0968 1421783203 1066.7102
0969 1421787109 1063.3157
0970 1421791015 1068.1876
0971 1421794921 1068.8993
0972 1421798828 1066.6655
0973 1421802734 1067.9314
0974 1421806640 1063.3345
0975 1421810546 1062.7615
0976 1421814453 1063.6147
0977 1421818359 1059.7225
0978 1421822265 1058.4154
0979 1421826171 1057.6854
0980 1421830078 1061.0959
0981 1421833984 1056.6582
0982 1421837890 1057.8615
0983 1421841796 1056.2898
0984 1421845703 1057.9346
0985 1421849609 1049.2621
0986 1421853515 1050.9939
0987 1421857421 1046.6144
0988 1421861328 1045.5497
0989 1421865234 1042.9829
0990 1421869140 1043.2518
0991 1421873046 1048.1475
0992 1421876953 1046.6346
0993 1421880859 1042.0356
0994 1421884765 1041.2046
0995 1421888671 1041.1710
0996 1421892578 1039.2944
0997 1421896484 1035.6483
0998 1421900390 1032.4200
0999 1421904296 1032.9366
1000 1421908203 1028.8979
1001 1421912109 1031.2095
1002 1421916015 1029.8932
1003 1421919921 1026.1414
1004 1421923828 1026.6549
1005 1421927734 1025.8164
1006 1421931640 1028.8121
1007 1421935546 1022.1332
1008 1421939453 1024.7129
1009 1421943359 1026.5221
1010 1421947265 1027.5479
1011 1421951171 1022.4287
1012 1421955078 1021.0038
1013 1421958984 1022.9239
1014 1421962890 1022.4774
1015 1421966796 1020.9069
1016 1421970703 1021.2634
1017 1421974609 1019.7960
1018 1421978515 1019.6979
1019 1421982421 1020.1888
1020 1421986328 1020.5582
1021 1421990234 1021.7936
1022 1421994140 1024.3531
1023 1421998046 1059.9663
1024 1422001953 1137.7194
1025 1422005859 1057.0737
1026 1422009765 1027.6376
1027 1422013671 1021.4521
1028 1422017578 1023.4753
1029 1422021484 1022.1621
1030 1422025390 1017.7146
1031 1422029296 1019.0658
1032 1422033203 1021.1381
1033 1422037109 1018.4439
1034 1422041015 1016.3599
1035 1422044921 1017.2800
1036 1422048828 1018.5396
1037 1422052734 1016.5948
1038 1422056640 1020.0409
1039 1422060546 1024.7035
1040 1422064453 1019.1743
1041 1422068359 1019.7573
1042 1422072265 1018.6714
1043 1422076171 1024.5110
1044 1422080078 1026.0422
1045 1422083984 1021.8604
1046 1422087890 1027.6908
1047 1422091796 1026.5953
1048 1422095703 1026.2528
1049 1422099609 1033.4653
1050 1422103515 1031.7780
1051 1422107421 1035.5408
1052 1422111328 1034.6844
1053 1422115234 1032.0991
1054 1422119140 1035.6454
1055 1422123046 1031.1454
1056 1422126953 1037.3883
1057 1422130859 1038.7632
1058 1422134765 1040.3407
1059 1422138671 1039.3479
1060 1422142578 1043.0902
1061 1422146484 1043.5659
1062 1422150390 1042.0575
1063 1422154296 1045.1707
1064 1422158203 1050.0719
1065 1422162109 1048.3018
1066 1422166015 1050.8066
1067 1422169921 1048.5587
1068 1422173828 1047.5535
1069 1422177734 1051.6102
1070 1422181640 1054.6313
1071 1422185546 1054.6299
1072 1422189453 1050.5532
1073 1422193359 1055.9540
1074 1422197265 1057.4111
1075 1422201171 1056.2378
1076 1422205078 1056.1458
1077 1422208984 1058.0159
1078 1422212890 1058.4204
1079 1422216796 1063.0530
1080 1422220703 1060.5837
1081 1422224609 1062.4275
1082 1422228515 1065.7562
1083 1422232421 1064.0546
1084 1422236328 1064.8975
1085 1422240234 1061.5400
1086 1422244140 1063.1310
1087 1422248046 1060.6917
1088 1422251953 1062.7723
1089 1422255859 1062.3981
1090 1422259765 1066.6018
1091 1422263671 1064.7163
1092 1422267578 1064.8501
1093 1422271484 1065.0757
1094 1422275390 1066.1240
1095 1422279296 1063.6211
1096 1422283203 1068.1631
1097 1422287109 1066.9545
1098 1422291015 1067.1870
1099 1422294921 1063.3658
1100 1422298828 1060.3857
1101 1422302734 1065.3085
1102 1422306640 1059.5271
1103 1422310546 1063.0464
1104 1422314453 1059.1101
1105 1422318359 1060.3304
1106 1422322265 1060.5269
1107 1422326171 1058.1483
1108 1422330078 1057.6221
1109 1422333984 1060.3153
1110 1422337890 1059.2163
1111 1422341796 1060.8546
1112 1422345703 1057.3917
1113 1422349609 1058.2902
1114 1422353515 1054.2767
1115 1422357421 1053.8488
1116 1422361328 1050.0425
1117 1422365234 1049.2816
1118 1422369140 1051.0608
1119 1422373046 1049.2661
1120 1422376953 1046.4799
1121 1422380859 1047.5492
1122 1422384765 1038.9320
1123 1422388671 1043.5776
1124 1422392578 1040.9258
1125 1422396484 1035.7274
1126 1422400390 1039.5278
1127 1422404296 1039.8994
1128 1422408203 1035.1760
1129 1422412109 1032.4363
1130 1422416015 1033.6479
1131 1422419921 1031.8214
1132 1422423828 1029.8915
1133 1422427734 1026.8202
1134 1422431640 1025.9458
1135 1422435546 1025.8002
1136 1422439453 1024.7571
1137 1422443359 1022.8292
1138 1422447265 1026.9806
1139 1422451171 1021.7482
1140 1422455078 1019.9435
1141 1422458984 1018.4882
1142 1422462890 1012.8448
1143 1422466796 1012.8218
1144 1422470703 1017.4208
1145 1422474609 1013.8536
1146 1422478515 1013.1254
1147 1422482421 1013.0852
1148 1422486328 1008.6532
1149 1422490234 1009.0500
1150 1422494140 1009.3945
1151 1422498046 1010.8932
1152 1422501953 1007.5919
1153 1422505859 1002.2106
1154 1422509765 1002.6810
1155 1422513671 1003.5629
1156 1422517578 1003.8262
1157 1422521484 1003.3428
1158 1422525390 1004.0223
1159 1422529296 1005.5746
1160 1422533203 1004.0688
1161 1422537109 1003.1326
1162 1422541015 996.7277
1163 1422544921 998.0289
1164 1422548828 997.4253
1165 1422552734 1003.5722
1166 1422556640 1002.7346
1167 1422560546 999.9418
1168 1422564453 1001.1311
1169 1422568359 1004.2635
1170 1422572265 1000.2728
1171 1422576171 998.8267
1172 1422580078 1001.5361
1173 1422583984 1002.0047
1174 1422587890 1001.6349
1175 1422591796 1000.7721
1176 1422595703 1001.0630
1177 1422599609 1001.9905
1178 1422603515 1002.6597
1179 1422607421 998.7668
1180 1422611328 1000.3676
1181 1422615234 1006.2455
1182 1422619140 1005.8113
1183 1422623046 1006.1376
1184 1422626953 1004.7698
1185 1422630859 1007.1460
1186 1422634765 1003.9658
1187 1422638671 1007.7468
1188 1422642578 1009.1541
1189 1422646484 1012.9404
1190 1422650390 1009.6845
1191 1422654296 1010.5093
1192 1422658203 1010.5322
1193 1422662109 1008.6209
1194 1422666015 1013.3680
1195 1422669921 1013.9573
1196 1422673828 1012.8303
1197 1422677734 1017.3005
1198 1422681640 1017.3457
1199 1422685546 1015.8746
1200 1422689453 1019.0427
1201 1422693359 1018.9353
1202 1422697265 1022.6373
1203 1422701171 1019.7905
1204 1422705078 1020.5585
1205 1422708984 1026.2795
1206 1422712890 1019.5477
1207 1422716796 1021.2726
1208 1422720703 1027.6681
1209 1422724609 1032.9103
1210 1422728515 1027.0681
1211 1422732421 1029.2178
1212 1422736328 1030.8480
1213 1422740234 1027.4332
1214 1422744140 1032.7775
1215 1422748046 1033.1594
1216 1422751953 1032.4421
1217 1422755859 1031.2523
1218 1422759765 1032.7047
1219 1422763671 1033.7131
1220 1422767578 1036.3008
1221 1422771484 1035.4001
1222 1422775390 1036.1078
1223 1422779296 1037.0146
1224 1422783203 1029.0360
1225 1422787109 1037.6550
1226 1422791015 1036.1586
1227 1422794921 1036.6515
1228 1422798828 1032.2153
1229 1422802734 1037.0275
1230 1422806640 1040.1263
1231 1422810546 1038.8987
1232 1422814453 1036.2244
1233 1422818359 1040.3949
1234 1422822265 1040.0554
1235 1422826171 1037.6436
1236 1422830078 1032.8461
1237 1422833984 1034.8728
1238 1422837890 1035.8597
1239 1422841796 1038.2946
1240 1422845703 1034.6404
1241 1422849609 1038.1639
1242 1422853515 1034.9845
1243 1422857421 1036.7764
1244 1422861328 1038.4249
1245 1422865234 1034.3433
1246 1422869140 1035.1562
1247 1422873046 1032.1289
1248 1422876953 1031.5173
1249 1422880859 1034.7494
1250 1422884765 1032.5881
1251 1422888671 1028.1711
1252 1422892578 1025.8977
1253 1422896484 1028.8317
1254 1422900390 1026.6196
1255 1422904296 1025.9200
1256 1422908203 1024.5581
1257 1422912109 1019.9302
1258 1422916015 1021.9102
1259 1422919921 1025.1641
1260 1422923828 1021.8785
1261 1422927734 1023.5792
1262 1422931640 1018.0205
1263 1422935546 1024.2803
1264 1422939453 1016.4695
1265 1422943359 1020.6558
1266 1422947265 1018.6680
1267 1422951171 1013.3417
1268 1422955078 1012.3273
1269 1422958984 1014.8880
1270 1422962890 1016.4529
1271 1422966796 1014.1167
1272 1422970703 1008.1116
1273 1422974609 1007.7785
1274 1422978515 1012.5131
1275 1422982421 1005.9863
1276 1422986328 1001.5182
1277 1422990234 1005.5538
1278 1422994140 1008.2709
1279 1422998046 1009.7026
1280 1423001953 1002.7774
1281 1423005859 1004.0256
1282 1423009765 998.8606
1283 1423013671 998.0620
1284 1423017578 998.0453
1285 1423021484 996.9897
1286 1423025390 998.2909
1287 1423029296 996.6910
1288 1423033203 993.5914
1289 1423037109 996.6121
1290 1423041015 995.8185
1291 1423044921 992.4280
1292 1423048828 992.6315
1293 1423052734 989.5345
1294 1423056640 989.9410
1295 1423060546 992.0307
1296 1423064453 988.2793
1297 1423068359 985.7697
1298 1423072265 987.9538
1299 1423076171 985.7724
1300 1423080078 983.0966
1301 1423083984 986.1091
1302 1423087890 987.6606
1303 1423091796 986.4745
1304 1423095703 985.9393
1305 1423099609 987.1645
1306 1423103515 989.3196
1307 1423107421 988.1069
1308 1423111328 986.0818
1309 1423115234 981.3613
1310 1423119140 986.1426
1311 1423123046 988.7241
1312 1423126953 983.4243
1313 1423130859 987.8110
1314 1423134765 987.9990
1315 1423138671 983.0203
1316 1423142578 981.3640
1317 1423146484 980.1564
1318 1423150390 986.7077
1319 1423154296 981.8722
1320 1423158203 982.0191
1321 1423162109 981.6801
1322 1423166015 985.6526
1323 1423169921 984.8925
1324 1423173828 982.1162
1325 1423177734 984.6939
1326 1423181640 987.5903
1327 1423185546 986.3714
1328 1423189453 988.6650
1329 1423193359 987.4689
1330 1423197265 989.9053
1331 1423201171 988.1711
1332 1423205078 984.3821
1333 1423208984 985.3367
1334 1423212890 989.3513
1335 1423216796 985.1633
1336 1423220703 989.3477
1337 1423224609 987.0133
1338 1423228515 989.9274
1339 1423232421 990.8063
1340 1423236328 989.6003
1341 1423240234 994.4236
1342 1423244140 991.0985
1343 1423248046 988.7018
1344 1423251953 990.8580
1345 1423255859 989.4557
1346 1423259765 995.3121
1347 1423263671 991.4172
1348 1423267578 992.8639
1349 1423271484 996.5665
1350 1423275390 995.5565
1351 1423279296 994.6237
1352 1423283203 997.5510
1353 1423287109 999.6727
1354 1423291015 999.1586
1355 1423294921 1000.3730
1356 1423298828 1000.4169
1357 1423302734 1000.7421
1358 1423306640 1001.4426
1359 1423310546 1000.1725
1360 1423314453 998.6534
1361 1423318359 999.6348
1362 1423322265 999.4329
1363 1423326171 1000.5342
1364 1423330078 1000.8011
1365 1423333984 1001.1645
1366 1423337890 999.0077
1367 1423341796 999.8070
1368 1423345703 999.6625
1369 1423349609 1000.4771
1370 1423353515 1004.3991
1371 1423357421 1004.0858
1372 1423361328 1002.0736
1373 1423365234 1000.8688
1374 1423369140 999.3317
1375 1423373046 996.7918
1376 1423376953 1001.3737
1377 1423380859 1003.7271
1378 1423384765 999.0355
1379 1423388671 998.0453
1380 1423392578 1002.7881
1381 1423396484 1003.2176
1382 1423400390 1001.0142
1383 1423404296 999.6387
1384 1423408203 1000.8394
1385 1423412109 996.4854
1386 1423416015 998.5938
1387 1423419921 1000.9484
1388 1423423828 1000.1207
1389 1423427734 995.9078
1390 1423431640 999.3154
1391 1423435546 1001.3089
1392 1423439453 1003.8276
1393 1423443359 996.2067
1394 1423447265 996.1572
1395 1423451171 995.6932
1396 1423455078 1000.4587
1397 1423458984 996.1783
1398 1423462890 999.6542
1399 1423466796 1000.7286
1400 1423470703 996.2553
1401 1423474609 998.5864
1402 1423478515 996.3480
1403 1423482421 1002.0186
1404 1423486328 996.4347
1405 1423490234 997.1698
1406 1423494140 1000.3005
1407 1423498046 996.8547
1408 1423501953 994.3832
1409 1423505859 997.6418
1410 1423509765 996.0090
1411 1423513671 998.1577
1412 1423517578 1000.5054
1413 1423521484 998.9258
1414 1423525390 996.6423
1415 1423529296 998.0769
1416 1423533203 998.8495
1417 1423537109 997.2136
1418 1423541015 998.6410
1419 1423544921 995.8445
1420 1423548828 993.0782
1421 1423552734 997.7654
1422 1423556640 995.9670
1423 1423560546 993.4574
1424 1423564453 996.0637
1425 1423568359 997.3552
1426 1423572265 994.5507
1427 1423576171 999.8992
1428 1423580078 997.6675
1429 1423583984 997.0823
1430 1423587890 995.1349
1431 1423591796 995.6033
1432 1423595703 999.7042
1433 1423599609 1000.7656
1434 1423603515 994.2333
1435 1423607421 998.5698
1436 1423611328 999.8930
1437 1423615234 1000.0065
1438 1423619140 996.5740
1439 1423623046 999.3888
1440 1423626953 998.9418
1441 1423630859 1000.8586
1442 1423634765 999.9332
1443 1423638671 1003.2707
1444 1423642578 1001.8869
1445 1423646484 1005.6150
1446 1423650390 1002.1709
1447 1423654296 999.5115
1448 1423658203 1002.7220
1449 1423662109 1010.2295
1450 1423666015 1009.9528
1451 1423669921 1006.1429
1452 1423673828 1004.8427
1453 1423677734 1009.1500
1454 1423681640 1008.9459
1455 1423685546 1009.1893
1456 1423689453 1010.0421
1457 1423693359 1010.6268
1458 1423697265 1016.1388
1459 1423701171 1015.1650
1460 1423705078 1013.9421
1461 1423708984 1010.9356
1462 1423712890 1016.5392
1463 1423716796 1016.1232
1464 1423720703 1012.8379
1465 1423724609 1015.0384
1466 1423728515 1018.1340
1467 1423732421 1021.1436
1468 1423736328 1018.0282
1469 1423740234 1016.8969
1470 1423744140 1019.0773
1471 1423748046 1017.2105
1472 1423751953 1018.4398
1473 1423755859 1019.2328
1474 1423759765 1019.1500
1475 1423763671 1020.6498
1476 1423767578 1022.4756
1477 1423771484 1022.1839
1478 1423775390 1021.5315
1479 1423779296 1020.3282
1480 1423783203 1023.0952
1481 1423787109 1025.1544
1482 1423791015 1023.6227
1483 1423794921 1026.4731
1484 1423798828 1025.3678
1485 1423802734 1025.7916
1486 1423806640 1025.1858
1487 1423810546 1022.9973
1488 1423814453 1025.9590
1489 1423818359 1025.3656
1490 1423822265 1029.3499
1491 1423826171 1025.8778
1492 1423830078 1030.4967
1493 1423833984 1028.9572
1494 1423837890 1025.5930
1495 1423841796 1032.0651
1496 1423845703 1032.7406
1497 1423849609 1028.9021
1498 1423853515 1023.3447
1499 1423857421 1027.9528
1500 1423861328 1026.8254
1501 1423865234 1031.4937
1502 1423869140 1028.9844
1503 1423873046 1028.6066
1504 1423876953 1029.0831
1505 1423880859 1025.7783
1506 1423884765 1025.6362
1507 1423888671 1026.6852
1508 1423892578 1029.5013
1509 1423896484 1026.0485
1510 1423900390 1023.5411
1511 1423904296 1027.3301
1512 1423908203 1027.6670
1513 1423912109 1026.2856
1514 1423916015 1027.5077
1515 1423919921 1024.7358
1516 1423923828 1030.3793
1517 1423927734 1027.4181
1518 1423931640 1025.3651
1519 1423935546 1024.6711
1520 1423939453 1022.5252
1521 1423943359 1024.3076
1522 1423947265 1022.3042
1523 1423951171 1023.6570
1524 1423955078 1027.2308
1525 1423958984 1026.6433
1526 1423962890 1027.8416
1527 1423966796 1023.2292
1528 1423970703 1025.2064
1529 1423974609 1024.9890
1530 1423978515 1023.3512
1531 1423982421 1020.4680
1532 1423986328 1020.4777
1533 1423990234 1020.3465
1534 1423994140 1018.6117
1535 1423998046 1024.1078
1536 1424001953 1034.5095
1537 1424005859 1025.2435
1538 1424009765 1019.3411
1539 1424013671 1017.8240
1540 1424017578 1021.8255
1541 1424021484 1022.4806
1542 1424025390 1024.8571
1543 1424029296 1022.8368
1544 1424033203 1023.9252
1545 1424037109 1020.3356
1546 1424041015 1022.0459
1547 1424044921 1024.1116
1548 1424048828 1023.2389
1549 1424052734 1023.5080
1550 1424056640 1025.7822
1551 1424060546 1025.3024
1552 1424064453 1023.2375
1553 1424068359 1026.4122
1554 1424072265 1023.4216
1555 1424076171 1019.8915
1556 1424080078 1023.6061
1557 1424083984 1025.4481
1558 1424087890 1022.9651
1559 1424091796 1020.5850
1560 1424095703 1023.2383
1561 1424099609 1027.4232
1562 1424103515 1027.2843
1563 1424107421 1027.6957
1564 1424111328 1029.7323
1565 1424115234 1027.5547
1566 1424119140 1026.4580
1567 1424123046 1025.7883
1568 1424126953 1032.0891
1569 1424130859 1029.7771
1570 1424134765 1033.0929
1571 1424138671 1034.0544
1572 1424142578 1035.5115
1573 1424146484 1035.4966
1574 1424150390 1034.9023
1575 1424154296 1036.4160
1576 1424158203 1033.8802
1577 1424162109 1034.2363
1578 1424166015 1038.3970
1579 1424169921 1035.3834
1580 1424173828 1034.4241
1581 1424177734 1034.6862
1582 1424181640 1039.5797
1583 1424185546 1037.5016
1584 1424189453 1038.2501
1585 1424193359 1046.4296
1586 1424197265 1041.2604
1587 1424201171 1044.1893
1588 1424205078 1045.5179
1589 1424208984 1044.1461
1590 1424212890 1044.5280
1591 1424216796 1050.6541
1592 1424220703 1045.8290
1593 1424224609 1049.9187
1594 1424228515 1049.3176
1595 1424232421 1053.3262
1596 1424236328 1051.7726
1597 1424240234 1050.1805
1598 1424244140 1053.1500
1599 1424248046 1056.9618
1600 1424251953 1054.3821
1601 1424255859 1055.5559
1602 1424259765 1052.3124
1603 1424263671 1055.8361
1604 1424267578 1058.7427
1605 1424271484 1060.7000
1606 1424275390 1060.7131
1607 1424279296 1058.1469
1608 1424283203 1057.5101
1609 1424287109 1059.5179
1610 1424291015 1062.6006
1611 1424294921 1057.1510
1612 1424298828 1059.1526
1613 1424302734 1061.3571
1614 1424306640 1064.7488
1615 1424310546 1063.8691
1616 1424314453 1063.2852
1617 1424318359 1067.7406
1618 1424322265 1067.1053
1619 1424326171 1069.4203
1620 1424330078 1063.0669
1621 1424333984 1061.9109
1622 1424337890 1063.7645
1623 1424341796 1065.1721
1624 1424345703 1068.3605
1625 1424349609 1068.0079
1626 1424353515 1066.8077
1627 1424357421 1069.2698
1628 1424361328 1069.9519
1629 1424365234 1071.1268
1630 1424369140 1069.8586
1631 1424373046 1069.9424
1632 1424376953 1069.6163
1633 1424380859 1069.7758
1634 1424384765 1070.4436
1635 1424388671 1070.9091
1636 1424392578 1075.0126
1637 1424396484 1072.4254
1638 1424400390 1071.4786
1639 1424404296 1070.6135
1640 1424408203 1072.9060
1641 1424412109 1066.8884
1642 1424416015 1069.2496
1643 1424419921 1072.0081
1644 1424423828 1072.4697
1645 1424427734 1069.7898
1646 1424431640 1069.8729
1647 1424435546 1072.7484
1648 1424439453 1070.8735
1649 1424443359 1071.5836
1650 1424447265 1071.2346
1651 1424451171 1074.0673
1652 1424455078 1070.7410
1653 1424458984 1070.0428
1654 1424462890 1070.2738
1655 1424466796 1069.3202
1656 1424470703 1069.6195
1657 1424474609 1073.9008
1658 1424478515 1065.9000
1659 1424482421 1069.5088
1660 1424486328 1074.8252
1661 1424490234 1070.6746
1662 1424494140 1067.8646
1663 1424498046 1065.5630
1664 1424501953 1065.9808
1665 1424505859 1066.3572
1666 1424509765 1067.6710
1667 1424513671 1064.6465
1668 1424517578 1065.3818
1669 1424521484 1066.1282
1670 1424525390 1063.7985
1671 1424529296 1062.1105
1672 1424533203 1069.2494
1673 1424537109 1070.9196
1674 1424541015 1066.1511
1675 1424544921 1065.4854
1676 1424548828 1062.9828
1677 1424552734 1067.4780
1678 1424556640 1064.7207
1679 1424560546 1060.6630
1680 1424564453 1063.0879
1681 1424568359 1061.9587
1682 1424572265 1061.6364
1683 1424576171 1059.3098
1684 1424580078 1065.1257
1685 1424583984 1069.4100
1686 1424587890 1064.1294
1687 1424591796 1062.7335
1688 1424595703 1061.9948
1689 1424599609 1061.7319
1690 1424603515 1067.4224
1691 1424607421 1062.6053
1692 1424611328 1056.1372
1693 1424615234 1061.1405
1694 1424619140 1062.6569
1695 1424623046 1063.1432
1696 1424626953 1061.7207
1697 1424630859 1060.9380
1698 1424634765 1063.0737
1699 1424638671 1063.5789
1700 1424642578 1058.9578
1701 1424646484 1055.5773
1702 1424650390 1058.5249
1703 1424654296 1061.0194
1704 1424658203 1055.3987
1705 1424662109 1055.8868
1706 1424666015 1060.0491
1707 1424669921 1057.1078
1708 1424673828 1054.4895
1709 1424677734 1057.7762
1710 1424681640 1053.7162
1711 1424685546 1053.3860
1712 1424689453 1051.3387
1713 1424693359 1056.1614
1714 1424697265 1054.2599
1715 1424701171 1053.5873
1716 1424705078 1054.7734
1717 1424708984 1055.0842
1718 1424712890 1052.9055
1719 1424716796 1047.0360
1720 1424720703 1048.5145
1721 1424724609 1047.9135
1722 1424728515 1049.6749
1723 1424732421 1049.8464
1724 1424736328 1044.1730
1725 1424740234 1044.1635
1726 1424744140 1039.5776
1727 1424748046 1038.8427
1728 1424751953 1042.3987
1729 1424755859 1040.1328
1730 1424759765 1039.8749
1731 1424763671 1041.4756
1732 1424767578 1032.2098
1733 1424771484 1035.2145
1734 1424775390 1035.9896
1735 1424779296 1035.4176
1736 1424783203 1032.6530
1737 1424787109 1031.6072
1738 1424791015 1023.8370
1739 1424794921 1027.3938
1740 1424798828 1024.9656
1741 1424802734 1027.6348
1742 1424806640 1026.9186
1743 1424810546 1023.8213
1744 1424814453 1025.7107
1745 1424818359 1020.8546
1746 1424822265 1020.3422
1747 1424826171 1018.3587
1748 1424830078 1015.3170
1749 1424833984 1014.0117
1750 1424837890 1011.4734
1751 1424841796 1008.4261
1752 1424845703 1005.3767
1753 1424849609 1002.2461
1754 1424853515 1004.7525
1755 1424857421 1008.3015
1756 1424861328 1004.3394
1757 1424865234 998.3413
1758 1424869140 1000.5048
1759 1424873046 999.5158
1760 1424876953 993.3149
1761 1424880859 999.0656
1762 1424884765 995.3286
1763 1424888671 988.7769
1764 1424892578 989.6663
1765 1424896484 990.9628
1766 1424900390 986.4053
1767 1424904296 988.4413
1768 1424908203 988.9261
1769 1424912109 988.9054
1770 1424916015 983.1872
1771 1424919921 981.0248
1772 1424923828 985.8372
1773 1424927734 981.2796
1774 1424931640 982.9382
1775 1424935546 980.8610
1776 1424939453 982.2252
1777 1424943359 983.8757
1778 1424947265 974.8800
1779 1424951171 975.3535
1780 1424955078 980.7041
1781 1424958984 975.6812
1782 1424962890 977.0866
1783 1424966796 978.1287
1784 1424970703 978.0082
1785 1424974609 975.5814
1786 1424978515 977.2724
1787 1424982421 975.0649
1788 1424986328 972.2180
1789 1424990234 978.6084
1790 1424994140 978.2629
1791 1424998046 981.4495
1792 1425001953 988.9510
1793 1425005859 1024.2365
1794 1425009765 1029.7657
1795 1425013671 981.8164
1796 1425017578 981.8137
1797 1425021484 983.4654
1798 1425025390 988.8334
1799 1425029296 984.0269
1800 1425033203 987.9219
1801 1425037109 987.7801
1802 1425041015 985.8221
1803 1425044921 991.3492
1804 1425048828 993.3047
1805 1425052734 993.8779
1806 1425056640 997.1711
1807 1425060546 997.6473
1808 1425064453 1001.1024
1809 1425068359 1004.5754
1810 1425072265 1006.7030
1811 1425076171 1006.2671
1812 1425080078 1007.8562
1813 1425083984 1011.3301
1814 1425087890 1016.9540
1815 1425091796 1023.5809
1816 1425095703 1021.6069
1817 1425099609 1023.9113
1818 1425103515 1025.0658
1819 1425107421 1030.8730
1820 1425111328 1033.6710
1821 1425115234 1039.3232
1822 1425119140 1038.5631
1823 1425123046 1041.3102
1824 1425126953 1047.3193
1825 1425130859 1049.8190
1826 1425134765 1052.7408
1827 1425138671 1054.2755
1828 1425142578 1056.2919
1829 1425146484 1061.5342
1830 1425150390 1066.7432
1831 1425154296 1066.8982
1832 1425158203 1069.0651
1833 1425162109 1075.5188
1834 1425166015 1075.6882
1835 1425169921 1080.4027
1836 1425173828 1081.0293
1837 1425177734 1083.9502
1838 1425181640 1086.3236
1839 1425185546 1092.5027
1840 1425189453 1096.9128
1841 1425193359 1093.0927
1842 1425197265 1097.4493
1843 1425201171 1099.3866
1844 1425205078 1100.1835
1845 1425208984 1103.5426
1846 1425212890 1106.2012
1847 1425216796 1106.3923
1848 1425220703 1110.4203
1849 1425224609 1111.8019
1850 1425228515 1110.1442
1851 1425232421 1111.4092
1852 1425236328 1110.9216
1853 1425240234 1109.3390
1854 1425244140 1110.6798
1855 1425248046 1112.0803
1856 1425251953 1109.5079
1857 1425255859 1108.9895
1858 1425259765 1105.6593
1859 1425263671 1108.1334
1860 1425267578 1107.6337
1861 1425271484 1101.8409
1862 1425275390 1098.6310
1863 1425279296 1094.6124
1864 1425283203 1087.5923
1865 1425287109 1091.2555
1866 1425291015 1083.0001
1867 1425294921 1084.1013
1868 1425298828 1077.0085
1869 1425302734 1071.3965
1870 1425306640 1066.1747
1871 1425310546 1061.0620
1872 1425314453 1050.2327
1873 1425318359 1046.7194
1874 1425322265 1038.7491
1875 1425326171 1029.5676
1876 1425330078 1023.1174
1877 1425333984 1012.6738
1878 1425337890 1008.4874
1879 1425341796 1000.3588
1880 1425345703 994.7797
1881 1425349609 983.4780
1882 1425353515 970.4957
1883 1425357421 959.0809
1884 1425361328 948.0880
1885 1425365234 937.5057
1886 1425369140 920.6663
1887 1425373046 911.5070
1888 1425376953 898.9901
1889 1425380859 888.9061
1890 1425384765 874.7381
1891 1425388671 864.5834
1892 1425392578 848.2826
1893 1425396484 836.2817
1894 1425400390 822.8303
1895 1425404296 806.8953
1896 1425408203 792.3800
1897 1425412109 773.3763
1898 1425416015 762.2795
1899 1425419921 745.3070
1900 1425423828 729.3493
1901 1425427734 715.6481
1902 1425431640 700.8560
1903 1425435546 682.9747
1904 1425439453 667.7219
1905 1425443359 651.2774
1906 1425447265 633.8068
1907 1425451171 618.3915
1908 1425455078 602.3749
1909 1425458984 584.8398
1910 1425462890 569.8887
1911 1425466796 552.3835
1912 1425470703 537.9218
1913 1425474609 521.8550
1914 1425478515 504.7114
1915 1425482421 488.0570
1916 1425486328 474.1770
1917 1425490234 456.8272
1918 1425494140 440.2763
1919 1425498046 423.9485
1920 1425501953 410.8644
1921 1425505859 395.3281
1922 1425509765 379.8483
1923 1425513671 364.8467
1924 1425517578 350.6356
1925 1425521484 337.1529
1926 1425525390 322.7453
1927 1425529296 310.5439
1928 1425533203 295.8663
1929 1425537109 281.7803
1930 1425541015 269.9030
1931 1425544921 256.4437
1932 1425548828 244.8215
1933 1425552734 233.4467
1934 1425556640 221.1616
1935 1425560546 209.7303
1936 1425564453 198.8592
1937 1425568359 187.9619
1938 1425572265 177.9300
1939 1425576171 168.3510
1940 1425580078 159.0057
1941 1425583984 149.8309
1942 1425587890 140.1788
1943 1425591796 132.5147
1944 1425595703 123.9379
1945 1425599609 116.2716
1946 1425603515 108.8467
1947 1425607421 101.9188
1948 1425611328 94.5745
1949 1425615234 88.5992
1950 1425619140 82.3688
1951 1425623046 76.3027
1952 1425626953 70.9975
1953 1425630859 65.3798
1954 1425634765 60.3524
1955 1425638671 55.5437
1956 1425642578 51.2761
1957 1425646484 46.9230
1958 1425650390 43.0804
1959 1425654296 39.4185
1960 1425658203 35.8876
1961 1425662109 32.7013
1962 1425666015 29.6908
1963 1425669921 26.9487
1964 1425673828 24.1935
1965 1425677734 21.9473
1966 1425681640 19.6006
1967 1425685546 17.6484
1968 1425689453 15.7513
1969 1425693359 14.0607
1970 1425697265 12.4637
1971 1425701171 11.0352
1972 1425705078 9.6760
1973 1425708984 8.4561
1974 1425712890 7.3996
1975 1425716796 6.4067
1976 1425720703 5.5207
1977 1425724609 4.7465
1978 1425728515 4.0424
1979 1425732421 3.4287
1980 1425736328 2.8758
1981 1425740234 2.3947
1982 1425744140 1.9714
1983 1425748046 1.6029
1984 1425751953 1.2893
1985 1425755859 1.0197
1986 1425759765 0.7928
1987 1425763671 0.6087
1988 1425767578 0.4518
1989 1425771484 0.3249
1990 1425775390 0.2261
1991 1425779296 0.1520
1992 1425783203 0.0977
1993 1425787109 0.0615
1994 1425791015 0.0405
1995 1425794921 0.0333
1996 1425798828 0.0370
1997 1425802734 0.0505
1998 1425806640 0.0717
1999 1425810546 0.0994
2000 1425814453 0.1320
2001 1425818359 0.1683
2002 1425822265 0.2084
2003 1425826171 0.2497
2004 1425830078 0.2894
2005 1425833984 0.3329
2006 1425837890 0.3767
2007 1425841796 0.4182
2008 1425845703 0.4596
2009 1425849609 0.5002
2010 1425853515 0.5362
2011 1425857421 0.5704
2012 1425861328 0.6045
2013 1425865234 0.6377
2014 1425869140 0.6665
2015 1425873046 0.6936
2016 1425876953 0.7178
2017 1425880859 0.7407
2018 1425884765 0.7646
2019 1425888671 0.7784
2020 1425892578 0.7940
2021 1425896484 0.8102
2022 1425900390 0.8227
2023 1425904296 0.8343
2024 1425908203 0.8427
2025 1425912109 0.8499
2026 1425916015 0.8567
2027 1425919921 0.8623
2028 1425923828 0.8681
2029 1425927734 0.8745
2030 1425931640 0.8704
2031 1425935546 0.8732
2032 1425939453 0.8760
2033 1425943359 0.8781
2034 1425947265 0.8761
2035 1425951171 0.8760
2036 1425955078 0.8784
2037 1425958984 0.8782
2038 1425962890 0.8738
2039 1425966796 0.8699
2040 1425970703 0.8732
2041 1425974609 0.8752
2042 1425978515 0.8721
2043 1425982421 0.8739
2044 1425986328 0.8722
2045 1425990234 0.8709
2046 1425994140 0.8712
2047 1425998046 0.8719
